These are relative spectral response functions of landsat4_tm, and data are taken from official websites. 
Band name may be different from what you can see on those websites, but the right band numbers are kept. 
c1 is generally what you want to use, but others are also included when they are available. 
Works from Professor Philip Lewis and Jose GÃ³mez-Dans are included.

Feng Yin

Dept. Geography, University College London
Gower St.
London WC1E 6BT, UK
marcyinfeng@gmail.com

c1
band1
485.0
410.0, 411.0, 412.0, 413.0, 414.0, 415.0, 416.0, 417.0, 418.0, 419.0, 420.0, 421.0, 422.0, 423.0, 424.0, 425.0, 426.0, 427.0, 428.0, 429.0, 430.0, 431.0, 432.0, 433.0, 434.0, 435.0, 436.0, 437.0, 438.0, 439.0, 440.0, 441.0, 442.0, 443.0, 444.0, 445.0, 446.0, 447.0, 448.0, 449.0, 450.0, 451.0, 452.0, 453.0, 454.0, 455.0, 456.0, 457.0, 458.0, 459.0, 460.0, 461.0, 462.0, 463.0, 464.0, 465.0, 466.0, 467.0, 468.0, 469.0, 470.0, 471.0, 472.0, 473.0, 474.0, 475.0, 476.0, 477.0, 478.0, 479.0, 480.0, 481.0, 482.0, 483.0, 484.0, 485.0, 486.0, 487.0, 488.0, 489.0, 490.0, 491.0, 492.0, 493.0, 494.0, 495.0, 496.0, 497.0, 498.0, 499.0, 500.0, 501.0, 502.0, 503.0, 504.0, 505.0, 506.0, 507.0, 508.0, 509.0, 510.0, 511.0, 512.0, 513.0, 514.0, 515.0, 516.0, 517.0, 518.0, 519.0, 520.0, 521.0, 522.0, 523.0, 524.0, 525.0, 526.0, 527.0, 528.0, 529.0, 530.0, 531.0, 532.0, 533.0, 534.0, 535.0, 536.0, 537.0, 538.0, 539.0, 540.0, 541.0, 542.0, 543.0, 544.0, 545.0, 546.0, 547.0, 548.0, 549.0, 550.0, 551.0, 552.0
0.0, 0.0, 0.0005, 0.0006, 0.0006, 0.0007, 0.0007, 0.0008, 0.0008, 0.0009, 0.0009, 0.001, 0.001, 0.0011, 0.0012, 0.0012, 0.0016, 0.002, 0.0024, 0.0028, 0.0032, 0.0051, 0.0072, 0.0103, 0.0134, 0.0166, 0.0199, 0.0252, 0.031, 0.0367, 0.0421, 0.0476, 0.0531, 0.0588, 0.0645, 0.0704, 0.0827, 0.1213, 0.1725, 0.273, 0.3718, 0.4425, 0.5142, 0.5788, 0.6268, 0.7114, 0.7318, 0.7415, 0.751, 0.755, 0.7564, 0.7663, 0.7763, 0.7876, 0.7965, 0.8076, 0.8117, 0.8168, 0.8219, 0.8266, 0.8288, 0.8309, 0.8331, 0.8351, 0.8383, 0.8457, 0.8532, 0.8607, 0.8682, 0.8758, 0.8835, 0.886, 0.8885, 0.891, 0.8934, 0.8959, 0.8983, 0.9007, 0.9031, 0.9054, 0.9078, 0.9179, 0.9281, 0.9384, 0.9476, 0.9519, 0.9563, 0.9607, 0.9651, 0.9703, 0.9789, 0.9866, 0.9943, 1.0, 0.9986, 0.9897, 0.9629, 0.9358, 0.9085, 0.8806, 0.8519, 0.8244, 0.8101, 0.7956, 0.7788, 0.7559, 0.7068, 0.5964, 0.4966, 0.4132, 0.3292, 0.2447, 0.1369, 0.1054, 0.0945, 0.0834, 0.0723, 0.0612, 0.0554, 0.052, 0.0485, 0.045, 0.0415, 0.038, 0.0344, 0.0309, 0.0273, 0.0237, 0.0215, 0.0192, 0.017, 0.0147, 0.0125, 0.011, 0.0098, 0.0086, 0.0073, 0.0061, 0.0059, 0.0057, 0.0055, 0.0, 0.0
band2
560.0
500.0, 501.0, 502.0, 503.0, 504.0, 505.0, 506.0, 507.0, 508.0, 509.0, 510.0, 511.0, 512.0, 513.0, 514.0, 515.0, 516.0, 517.0, 518.0, 519.0, 520.0, 521.0, 522.0, 523.0, 524.0, 525.0, 526.0, 527.0, 528.0, 529.0, 530.0, 531.0, 532.0, 533.0, 534.0, 535.0, 536.0, 537.0, 538.0, 539.0, 540.0, 541.0, 542.0, 543.0, 544.0, 545.0, 546.0, 547.0, 548.0, 549.0, 550.0, 551.0, 552.0, 553.0, 554.0, 555.0, 556.0, 557.0, 558.0, 559.0, 560.0, 561.0, 562.0, 563.0, 564.0, 565.0, 566.0, 567.0, 568.0, 569.0, 570.0, 571.0, 572.0, 573.0, 574.0, 575.0, 576.0, 577.0, 578.0, 579.0, 580.0, 581.0, 582.0, 583.0, 584.0, 585.0, 586.0, 587.0, 588.0, 589.0, 590.0, 591.0, 592.0, 593.0, 594.0, 595.0, 596.0, 597.0, 598.0, 599.0, 600.0, 601.0, 602.0, 603.0, 604.0, 605.0, 606.0, 607.0, 608.0, 609.0, 610.0, 611.0, 612.0, 613.0, 614.0, 615.0, 616.0, 617.0, 618.0, 619.0, 620.0, 621.0, 622.0, 623.0, 624.0, 625.0, 626.0, 627.0, 628.0, 629.0, 630.0, 635.0, 640.0, 645.0, 650.0
0.0, 0.0006, 0.0019, 0.0032, 0.0065, 0.0089, 0.0114, 0.0139, 0.0164, 0.019, 0.0215, 0.0241, 0.0268, 0.0295, 0.0322, 0.0349, 0.0504, 0.0662, 0.0912, 0.1205, 0.152, 0.1912, 0.2309, 0.2711, 0.3117, 0.3529, 0.3917, 0.4299, 0.4685, 0.5075, 0.5372, 0.5606, 0.5772, 0.5909, 0.6046, 0.6168, 0.6326, 0.6467, 0.661, 0.6754, 0.6899, 0.7003, 0.7107, 0.7213, 0.7319, 0.7426, 0.7533, 0.7642, 0.7751, 0.7861, 0.7971, 0.8031, 0.8091, 0.8152, 0.8206, 0.8261, 0.8316, 0.8371, 0.8427, 0.8482, 0.8538, 0.8593, 0.865, 0.8706, 0.8731, 0.8743, 0.8754, 0.8766, 0.8777, 0.8788, 0.8799, 0.8809, 0.882, 0.883, 0.884, 0.885, 0.886, 0.8869, 0.8914, 0.8958, 0.9002, 0.9047, 0.9092, 0.9136, 0.9323, 0.9444, 0.9536, 0.963, 0.9715, 0.9768, 0.982, 0.9875, 0.9941, 0.9986, 1.0, 0.9991, 0.9984, 0.9953, 0.9799, 0.9644, 0.9488, 0.9265, 0.8941, 0.8616, 0.8288, 0.7959, 0.7466, 0.6721, 0.597, 0.5215, 0.4674, 0.4131, 0.3586, 0.3038, 0.2487, 0.2057, 0.181, 0.1562, 0.1313, 0.1078, 0.0973, 0.0868, 0.0763, 0.0657, 0.055, 0.0518, 0.0486, 0.0454, 0.0422, 0.039, 0.0357, 0.0207, 0.0114, 0.0057, 0.0
band3
660.0
580.0, 590.0, 600.0, 605.0, 610.0, 611.0, 612.0, 613.0, 614.0, 615.0, 616.0, 617.0, 618.0, 619.0, 620.0, 621.0, 622.0, 623.0, 624.0, 625.0, 626.0, 627.0, 628.0, 629.0, 630.0, 631.0, 632.0, 633.0, 634.0, 635.0, 636.0, 637.0, 638.0, 639.0, 640.0, 641.0, 642.0, 643.0, 644.0, 645.0, 646.0, 647.0, 648.0, 649.0, 650.0, 651.0, 652.0, 653.0, 654.0, 655.0, 656.0, 657.0, 658.0, 659.0, 660.0, 661.0, 662.0, 663.0, 664.0, 665.0, 666.0, 667.0, 668.0, 669.0, 670.0, 671.0, 672.0, 673.0, 674.0, 675.0, 676.0, 677.0, 678.0, 679.0, 680.0, 681.0, 682.0, 683.0, 684.0, 685.0, 686.0, 687.0, 688.0, 689.0, 690.0, 691.0, 692.0, 693.0, 694.0, 695.0, 696.0, 697.0, 698.0, 699.0, 700.0, 701.0, 702.0, 703.0, 704.0, 705.0, 710.0, 715.0, 720.0, 725.0, 730.0, 740.0
0.0021, 0.0023, 0.0089, 0.0231, 0.0415, 0.0453, 0.0616, 0.0811, 0.1007, 0.1204, 0.1402, 0.1602, 0.1803, 0.2402, 0.3271, 0.4145, 0.4491, 0.4706, 0.4921, 0.5138, 0.5354, 0.5572, 0.579, 0.601, 0.6235, 0.6504, 0.6866, 0.7366, 0.7869, 0.8027, 0.8185, 0.8345, 0.8485, 0.8598, 0.8711, 0.8826, 0.8941, 0.9056, 0.9116, 0.917, 0.9224, 0.9278, 0.9332, 0.9386, 0.9441, 0.9433, 0.9424, 0.9415, 0.9406, 0.9397, 0.9388, 0.9379, 0.937, 0.936, 0.9351, 0.9372, 0.9394, 0.9429, 0.9483, 0.9537, 0.9591, 0.9646, 0.97, 0.9755, 0.9793, 0.9831, 0.9869, 0.9904, 0.9969, 0.9964, 0.9982, 1.0, 0.9977, 0.9957, 0.9936, 0.9725, 0.9734, 0.9742, 0.9635, 0.9451, 0.9265, 0.9078, 0.871, 0.822, 0.7727, 0.6869, 0.594, 0.5049, 0.4333, 0.3612, 0.2888, 0.2235, 0.1879, 0.1522, 0.1162, 0.1056, 0.095, 0.0844, 0.0737, 0.0629, 0.045, 0.03, 0.0195, 0.0121, 0.0061, 0.0031
band4
830.0
730.0, 735.0, 740.0, 745.0, 750.0, 751.0, 752.0, 753.0, 754.0, 755.0, 756.0, 757.0, 758.0, 759.0, 760.0, 761.0, 762.0, 763.0, 764.0, 765.0, 766.0, 767.0, 768.0, 769.0, 770.0, 771.0, 772.0, 773.0, 774.0, 775.0, 776.0, 777.0, 778.0, 779.0, 780.0, 781.0, 782.0, 783.0, 784.0, 785.0, 786.0, 787.0, 788.0, 789.0, 790.0, 791.0, 792.0, 793.0, 794.0, 795.0, 796.0, 797.0, 798.0, 799.0, 800.0, 801.0, 802.0, 803.0, 804.0, 805.0, 806.0, 807.0, 808.0, 809.0, 810.0, 811.0, 812.0, 813.0, 814.0, 815.0, 816.0, 817.0, 818.0, 819.0, 820.0, 821.0, 822.0, 823.0, 824.0, 825.0, 826.0, 827.0, 828.0, 829.0, 830.0, 831.0, 832.0, 833.0, 834.0, 835.0, 836.0, 837.0, 838.0, 839.0, 840.0, 841.0, 842.0, 843.0, 844.0, 845.0, 846.0, 847.0, 848.0, 849.0, 850.0, 851.0, 852.0, 853.0, 854.0, 855.0, 856.0, 857.0, 858.0, 859.0, 860.0, 861.0, 862.0, 863.0, 864.0, 865.0, 866.0, 867.0, 868.0, 869.0, 870.0, 871.0, 872.0, 873.0, 874.0, 875.0, 876.0, 877.0, 878.0, 879.0, 880.0, 881.0, 882.0, 883.0, 884.0, 885.0, 886.0, 887.0, 888.0, 889.0, 890.0, 891.0, 892.0, 893.0, 894.0, 895.0, 896.0, 897.0, 898.0, 899.0, 900.0, 901.0, 902.0, 903.0, 904.0, 905.0, 906.0, 907.0, 908.0, 909.0, 910.0, 911.0, 912.0, 913.0, 914.0, 915.0, 920.0, 925.0, 930.0, 935.0, 940.0, 945.0
0.0024, 0.0048, 0.0072, 0.0097, 0.0195, 0.0224, 0.0254, 0.0283, 0.0313, 0.0343, 0.0422, 0.0503, 0.0583, 0.0663, 0.0744, 0.0825, 0.0905, 0.0987, 0.1207, 0.1428, 0.1649, 0.1871, 0.2158, 0.2511, 0.2864, 0.3219, 0.3573, 0.3929, 0.4285, 0.4642, 0.5, 0.5436, 0.5868, 0.6301, 0.6733, 0.7166, 0.7599, 0.795, 0.8218, 0.8487, 0.8756, 0.9025, 0.917, 0.9315, 0.946, 0.9564, 0.9629, 0.9695, 0.976, 0.9826, 0.9861, 0.9896, 0.993, 0.9965, 1.0, 0.9973, 0.9945, 0.9918, 0.9891, 0.9863, 0.9833, 0.9803, 0.9772, 0.9742, 0.9712, 0.9682, 0.9651, 0.9621, 0.9591, 0.9561, 0.953, 0.95, 0.9474, 0.9447, 0.942, 0.9391, 0.9362, 0.9333, 0.9304, 0.9304, 0.932, 0.934, 0.936, 0.938, 0.9399, 0.9419, 0.9439, 0.9459, 0.9479, 0.9499, 0.9519, 0.9539, 0.9558, 0.9578, 0.9598, 0.9618, 0.9638, 0.9658, 0.9677, 0.9697, 0.9717, 0.9737, 0.9756, 0.9776, 0.9796, 0.9782, 0.9768, 0.9754, 0.974, 0.9726, 0.9711, 0.9697, 0.9674, 0.9651, 0.9627, 0.9604, 0.9591, 0.9589, 0.9587, 0.9599, 0.961, 0.9621, 0.9632, 0.9643, 0.9655, 0.9666, 0.9677, 0.9653, 0.9626, 0.9599, 0.9549, 0.9499, 0.9449, 0.94, 0.935, 0.929, 0.9218, 0.9147, 0.9077, 0.9006, 0.8936, 0.8866, 0.8796, 0.8726, 0.8657, 0.8648, 0.864, 0.8577, 0.846, 0.8344, 0.8229, 0.8114, 0.8, 0.7889, 0.7786, 0.7333, 0.6882, 0.6434, 0.5785, 0.509, 0.44, 0.3714, 0.3211, 0.2755, 0.2303, 0.1853, 0.1557, 0.1301, 0.1047, 0.084, 0.0341, 0.0167, 0.0081, 0.0059, 0.0038, 0.0015
band5
1650.0
1503.0, 1504.0, 1506.0, 1508.0, 1510.0, 1512.0, 1514.0, 1515.0, 1517.0, 1519.0, 1521.0, 1523.0, 1525.0, 1526.0, 1528.0, 1530.0, 1532.0, 1534.0, 1536.0, 1538.0, 1540.0, 1542.0, 1543.0, 1545.0, 1547.0, 1549.0, 1551.0, 1553.0, 1555.0, 1557.0, 1559.0, 1561.0, 1563.0, 1565.0, 1567.0, 1569.0, 1571.0, 1572.0, 1574.0, 1576.0, 1578.0, 1580.0, 1582.0, 1584.0, 1586.0, 1588.0, 1590.0, 1592.0, 1594.0, 1596.0, 1598.0, 1600.0, 1602.0, 1604.0, 1606.0, 1608.0, 1610.0, 1613.0, 1615.0, 1617.0, 1619.0, 1621.0, 1623.0, 1625.0, 1627.0, 1629.0, 1631.0, 1633.0, 1635.0, 1637.0, 1639.0, 1641.0, 1643.0, 1645.0, 1647.0, 1649.0, 1651.0, 1653.0, 1656.0, 1658.0, 1660.0, 1662.0, 1664.0, 1666.0, 1668.0, 1670.0, 1672.0, 1674.0, 1676.0, 1678.0, 1680.0, 1682.0, 1684.0, 1687.0, 1689.0, 1691.0, 1693.0, 1695.0, 1697.0, 1699.0, 1701.0, 1703.0, 1705.0, 1707.0, 1709.0, 1711.0, 1714.0, 1716.0, 1718.0, 1720.0, 1722.0, 1724.0, 1725.0, 1726.0, 1728.0, 1730.0, 1732.0, 1734.0, 1736.0, 1738.0, 1740.0, 1742.0, 1744.0, 1747.0, 1749.0, 1751.0, 1753.0, 1755.0, 1757.0, 1759.0, 1761.0, 1763.0, 1765.0, 1767.0, 1769.0, 1771.0, 1773.0, 1775.0, 1777.0, 1779.0, 1781.0, 1783.0, 1785.0, 1787.0, 1789.0, 1791.0, 1793.0, 1795.0, 1797.0, 1799.0, 1801.0, 1803.0, 1805.0, 1807.0, 1809.0, 1811.0, 1813.0, 1815.0, 1820.0, 1825.0, 1830.0, 1840.0, 1850.0, 1860.0, 1870.0, 1880.0, 1890.0, 1888.0, 1889.0, nan, nan, nan, nan, nan, nan, nan, nan, nan, nan, nan, nan, nan, nan, nan, nan, nan, nan, nan, nan, nan, nan, nan, nan, nan, nan, nan, nan, nan, nan, nan, nan, nan, nan, nan, nan, nan, nan, nan, nan, nan, nan, nan, nan, nan, nan, nan, nan, nan, nan, nan, nan, nan, nan, nan, nan, nan, nan, nan, nan, nan
0.0, 0.0002, 0.0002, 0.0004, 0.0006, 0.0008, 0.001, 0.0011, 0.0012, 0.0014, 0.0016, 0.0022, 0.0036, 0.0051, 0.0059, 0.0074, 0.009, 0.0116, 0.0146, 0.0176, 0.0207, 0.0238, 0.0327, 0.0378, 0.0479, 0.0667, 0.0873, 0.1138, 0.1513, 0.1893, 0.2278, 0.2669, 0.312, 0.368, 0.4248, 0.4826, 0.5412, 0.598, 0.6252, 0.6801, 0.7319, 0.7775, 0.8236, 0.8578, 0.8903, 0.9165, 0.9302, 0.9287, 0.9468, 0.9429, 0.9368, 0.9327, 0.9325, 0.929, 0.9284, 0.9282, 0.928, 0.9396, 0.9493, 0.955, 0.9606, 0.9662, 0.9719, 0.9775, 0.9831, 0.9877, 0.9888, 0.9871, 0.9848, 0.9825, 0.9802, 0.9778, 0.9758, 0.974, 0.9721, 0.9703, 0.9685, 0.9672, 0.9679, 0.9732, 0.9768, 0.9803, 0.9833, 0.9861, 0.9875, 0.9859, 0.9844, 0.9834, 0.9824, 0.9813, 0.9803, 0.9793, 0.9783, 0.9772, 0.9597, 0.9746, 0.9751, 0.9784, 0.9816, 0.9849, 0.9882, 0.9905, 0.9918, 0.9932, 0.9946, 0.9961, 0.9978, 0.9995, 0.9991, 0.9962, 0.9932, 0.9896, 0.9859, 0.974, 0.9821, 0.9784, 0.9746, 0.9709, 0.9671, 0.9634, 0.9597, 0.9559, 0.9541, 0.9526, 0.9504, 0.9489, 0.9505, 0.9572, 0.9638, 0.9635, 0.9614, 0.957, 0.9483, 0.9397, 0.9197, 0.8978, 0.8679, 0.8235, 0.779, 0.7234, 0.6658, 0.6072, 0.5466, 0.486, 0.4245, 0.3647, 0.3134, 0.2792, 0.245, 0.2108, 0.1767, 0.1488, 0.1327, 0.1167, 0.1007, 0.0847, 0.0723, 0.0661, 0.0599, 0.0446, 0.0333, 0.0224, 0.0164, 0.0109, 0.0073, 0.0037, 0.0001, 0.0, 0.0, nan, nan, nan, nan, nan, nan, nan, nan, nan, nan, nan, nan, nan, nan, nan, nan, nan, nan, nan, nan, nan, nan, nan, nan, nan, nan, nan, nan, nan, nan, nan, nan, nan, nan, nan, nan, nan, nan, nan, nan, nan, nan, nan, nan, nan, nan, nan, nan, nan, nan, nan, nan, nan, nan, nan, nan, nan, nan, nan, nan, nan
band7
2215.0
2000.0, 2001.0, 2003.0, 2005.0, 2007.0, 2009.0, 2011.0, 2013.0, 2015.0, 2017.0, 2018.0, 2020.0, 2022.0, 2024.0, 2026.0, 2028.0, 2030.0, 2032.0, 2034.0, 2035.0, 2037.0, 2039.0, 2041.0, 2043.0, 2045.0, 2047.0, 2049.0, 2051.0, 2052.0, 2054.0, 2056.0, 2058.0, 2060.0, 2062.0, 2064.0, 2066.0, 2067.0, 2069.0, 2071.0, 2073.0, 2075.0, 2077.0, 2079.0, 2081.0, 2083.0, 2085.0, 2086.0, 2088.0, 2090.0, 2092.0, 2094.0, 2096.0, 2099.0, 2100.0, 2102.0, 2104.0, 2106.0, 2108.0, 2110.0, 2112.0, 2114.0, 2116.0, 2117.0, 2119.0, 2121.0, 2123.0, 2125.0, 2127.0, 2129.0, 2131.0, 2133.0, 2135.0, 2136.0, 2138.0, 2140.0, 2142.0, 2144.0, 2146.0, 2148.0, 2150.0, 2151.0, 2153.0, 2155.0, 2157.0, 2159.0, 2161.0, 2163.0, 2165.0, 2166.0, 2168.0, 2170.0, 2172.0, 2174.0, 2176.0, 2178.0, 2180.0, 2182.0, 2183.0, 2185.0, 2187.0, 2189.0, 2191.0, 2193.0, 2195.0, 2197.0, 2199.0, 2201.0, 2203.0, 2205.0, 2207.0, 2209.0, 2210.0, 2212.0, 2214.0, 2216.0, 2218.0, 2220.0, 2222.0, 2223.0, 2226.0, 2227.0, 2229.0, 2231.0, 2233.0, 2235.0, 2237.0, 2239.0, 2241.0, 2242.0, 2244.0, 2246.0, 2248.0, 2250.0, 2252.0, 2254.0, 2256.0, 2258.0, 2259.0, 2261.0, 2263.0, 2265.0, 2267.0, 2269.0, 2271.0, 2273.0, 2274.0, 2276.0, 2278.0, 2280.0, 2282.0, 2284.0, 2286.0, 2288.0, 2290.0, 2292.0, 2293.0, 2295.0, 2297.0, 2299.0, 2301.0, 2303.0, 2305.0, 2307.0, 2309.0, 2310.0, 2312.0, 2314.0, 2316.0, 2318.0, 2320.0, 2322.0, 2323.0, 2325.0, 2327.0, 2329.0, 2331.0, 2333.0, 2335.0, 2337.0, 2339.0, 2340.0, 2342.0, 2344.0, 2346.0, 2348.0, 2350.0, 2352.0, 2354.0, 2355.0, 2357.0, 2359.0, 2361.0, 2363.0, 2365.0, 2367.0, 2369.0, 2371.0, 2373.0, 2374.0, 2376.0, 2378.0, 2380.0, 2382.0, 2384.0, 2386.0, 2390.0, 2395.0, 2400.0
0.0094, 0.0099, 0.0109, 0.0118, 0.0128, 0.0138, 0.0148, 0.0158, 0.0168, 0.0178, 0.0183, 0.0193, 0.0225, 0.0258, 0.029, 0.0323, 0.0356, 0.0389, 0.0423, 0.0439, 0.0473, 0.0506, 0.054, 0.0574, 0.0608, 0.0642, 0.0676, 0.0723, 0.0753, 0.0813, 0.0874, 0.0934, 0.0995, 0.1095, 0.1196, 0.1297, 0.1348, 0.1449, 0.16, 0.1802, 0.2004, 0.2207, 0.241, 0.2654, 0.294, 0.3227, 0.3371, 0.3659, 0.3947, 0.4237, 0.4528, 0.4819, 0.5257, 0.5404, 0.571, 0.6018, 0.6327, 0.6637, 0.6948, 0.7261, 0.7576, 0.7891, 0.805, 0.8368, 0.8641, 0.8869, 0.9098, 0.9202, 0.9307, 0.9387, 0.9441, 0.9496, 0.9498, 0.9502, 0.9506, 0.95, 0.9494, 0.9464, 0.9411, 0.9357, 0.9373, 0.9405, 0.9437, 0.9447, 0.9458, 0.9466, 0.9473, 0.948, 0.9507, 0.9562, 0.9617, 0.9675, 0.9733, 0.9792, 0.985, 0.9909, 0.9964, 0.9968, 0.9975, 0.9982, 0.9989, 0.9996, 0.9994, 0.9983, 0.9972, 0.996, 0.9952, 0.9946, 0.994, 0.9934, 0.9928, 0.9925, 0.9919, 0.9913, 0.9907, 0.9901, 0.9895, 0.9886, 0.9882, 0.9811, 0.9749, 0.9625, 0.9548, 0.9519, 0.949, 0.946, 0.9431, 0.9397, 0.9377, 0.9339, 0.93, 0.9261, 0.9223, 0.9211, 0.9198, 0.9186, 0.9174, 0.9168, 0.9153, 0.9136, 0.9119, 0.9102, 0.9077, 0.9045, 0.9012, 0.8996, 0.8964, 0.8932, 0.89, 0.8764, 0.8627, 0.8492, 0.8357, 0.8222, 0.8092, 0.8027, 0.7896, 0.7767, 0.7637, 0.7514, 0.7396, 0.7278, 0.7279, 0.7407, 0.7471, 0.76, 0.7721, 0.7841, 0.7962, 0.8083, 0.83, 0.8408, 0.8572, 0.8683, 0.874, 0.8745, 0.8678, 0.854, 0.8188, 0.748, 0.6947, 0.6424, 0.5899, 0.5372, 0.4844, 0.4313, 0.3864, 0.3415, 0.3189, 0.2738, 0.2286, 0.193, 0.1672, 0.1413, 0.1153, 0.0893, 0.072, 0.0633, 0.059, 0.0503, 0.0416, 0.0329, 0.0285, 0.0241, 0.0197, 0.011, 0.0082, 0.0055
