These are relative spectral response functions of meris, and data are taken from official websites. 
Band name may be different from what you can see on those websites, but the right band numbers are kept. 
c1 is generally what you want to use, but others are also included when they are available. 
Works from Professor Philip Lewis and Jose GÃ³mez-Dans are included.

Feng Yin

Dept. Geography, University College London
Gower St.
London WC1E 6BT, UK
marcyinfeng@gmail.com

c1
band1
412.433615778
405.2, 405.3, 405.4, 405.5, 405.6, 405.7, 405.8, 405.9, 406.0, 406.1, 406.2, 406.3, 406.4, 406.5, 406.6, 406.7, 406.8, 406.9, 407.0, 407.1, 407.2, 407.3, 407.4, 407.5, 407.6, 407.7, 407.8, 407.9, 408.0, 408.1, 408.2, 408.3, 408.4, 408.5, 408.6, 408.7, 408.8, 408.9, 409.0, 409.1, 409.2, 409.3, 409.4, 409.5, 409.6, 409.7, 409.8, 409.9, 410.0, 410.1, 410.2, 410.3, 410.4, 410.5, 410.6, 410.7, 410.8, 410.9, 411.0, 411.1, 411.2, 411.3, 411.4, 411.5, 411.6, 411.7, 411.8, 411.9, 412.0, 412.1, 412.2, 412.3, 412.4, 412.5, 412.6, 412.7, 412.8, 412.9, 413.0, 413.1, 413.2, 413.3, 413.4, 413.5, 413.6, 413.7, 413.8, 413.9, 414.0, 414.1, 414.2, 414.3, 414.4, 414.5, 414.6, 414.7, 414.8, 414.9, 415.0, 415.1, 415.2, 415.3, 415.4, 415.5, 415.6, 415.7, 415.8, 415.9, 416.0, 416.1, 416.2, 416.3, 416.4, 416.5, 416.6, 416.7, 416.8, 416.9, 417.0, 417.1, 417.2, 417.3, 417.4, 417.5, 417.6, 417.7, 417.8, 417.9, 418.0, 418.1, 418.2, 418.3, 418.4, 418.5, 418.6, 418.7, 418.8, 418.9, 419.0, 419.1, 419.2, 419.3, 419.4, 419.5, 419.6
7.69e-05, 0.000144, 0.000263, 0.000471, 0.000825, 0.00141, 0.00237, 0.00388, 0.00621, 0.00974, 0.0149, 0.0224, 0.0328, 0.0471, 0.0661, 0.0907, 0.122, 0.16, 0.206, 0.259, 0.319, 0.385, 0.455, 0.527, 0.599, 0.668, 0.731, 0.787, 0.835, 0.874, 0.904, 0.926, 0.942, 0.954, 0.962, 0.969, 0.975, 0.981, 0.986, 0.991, 0.994, 0.996, 0.996, 0.994, 0.991, 0.988, 0.986, 0.985, 0.985, 0.987, 0.989, 0.993, 0.995, 0.997, 0.997, 0.996, 0.994, 0.991, 0.988, 0.986, 0.986, 0.987, 0.989, 0.992, 0.995, 0.997, 0.998, 0.998, 0.996, 0.993, 0.99, 0.988, 0.987, 0.987, 0.989, 0.992, 0.995, 0.997, 0.999, 0.999, 0.998, 0.995, 0.992, 0.99, 0.988, 0.988, 0.989, 0.991, 0.994, 0.997, 0.999, 1.0, 0.999, 0.997, 0.994, 0.992, 0.989, 0.988, 0.989, 0.991, 0.994, 0.997, 0.999, 1.0, 0.999, 0.997, 0.993, 0.988, 0.983, 0.977, 0.97, 0.963, 0.953, 0.939, 0.92, 0.894, 0.86, 0.817, 0.765, 0.706, 0.64, 0.57, 0.498, 0.427, 0.359, 0.295, 0.238, 0.188, 0.145, 0.11, 0.0813, 0.0589, 0.0417, 0.029, 0.0196, 0.013, 0.00847, 0.00539, 0.00335, 0.00204, 0.00121, 0.000706, 0.000402, 0.000224, 0.000122
band10
753.123045597
747.0, 747.1, 747.2, 747.3, 747.4, 747.5, 747.6, 747.7, 747.8, 747.9, 748.0, 748.1, 748.2, 748.3, 748.4, 748.5, 748.6, 748.7, 748.8, 748.9, 749.0, 749.1, 749.2, 749.3, 749.4, 749.5, 749.6, 749.7, 749.8, 749.9, 750.0, 750.1, 750.2, 750.3, 750.4, 750.5, 750.6, 750.7, 750.8, 750.9, 751.0, 751.1, 751.2, 751.3, 751.4, 751.5, 751.6, 751.7, 751.8, 751.9, 752.0, 752.1, 752.2, 752.3, 752.4, 752.5, 752.6, 752.7, 752.8, 752.9, 753.0, 753.1, 753.2, 753.3, 753.4, 753.5, 753.6, 753.7, 753.8, 753.9, 754.0, 754.1, 754.2, 754.3, 754.4, 754.5, 754.6, 754.7, 754.8, 754.9, 755.0, 755.1, 755.2, 755.3, 755.4, 755.5, 755.6, 755.7, 755.8, 755.9, 756.0, 756.1, 756.2, 756.3, 756.4, 756.5, 756.6, 756.7, 756.8, 756.9, 757.0, 757.1, 757.2, 757.3, 757.4, 757.5, 757.6, 757.7, 757.8, 757.9, 758.0, 758.1, 758.2, 758.3, 758.4, 758.5, 758.6, 758.7, 758.8, 758.9, 759.0
5.18e-05, 9.7e-05, 0.000178, 0.000319, 0.00056, 0.000963, 0.00162, 0.00267, 0.00431, 0.0068, 0.0105, 0.0159, 0.0236, 0.0342, 0.0485, 0.0675, 0.0919, 0.123, 0.16, 0.205, 0.256, 0.315, 0.379, 0.447, 0.517, 0.587, 0.655, 0.718, 0.775, 0.824, 0.865, 0.897, 0.922, 0.94, 0.953, 0.963, 0.971, 0.978, 0.984, 0.989, 0.993, 0.997, 0.999, 0.999, 0.998, 0.996, 0.994, 0.991, 0.99, 0.989, 0.99, 0.992, 0.995, 0.998, 0.999, 1.0, 0.999, 0.997, 0.995, 0.992, 0.99, 0.989, 0.99, 0.991, 0.994, 0.996, 0.998, 1.0, 1.0, 0.998, 0.996, 0.993, 0.991, 0.989, 0.989, 0.99, 0.992, 0.995, 0.997, 0.999, 0.999, 0.998, 0.995, 0.991, 0.986, 0.98, 0.974, 0.967, 0.958, 0.946, 0.931, 0.909, 0.881, 0.844, 0.799, 0.746, 0.685, 0.619, 0.55, 0.479, 0.41, 0.344, 0.283, 0.228, 0.18, 0.139, 0.105, 0.078, 0.0567, 0.0403, 0.028, 0.0191, 0.0127, 0.00832, 0.00532, 0.00333, 0.00204, 0.00122, 0.000719, 0.000413, 0.000232
band11
760.007913967
755.8, 755.9, 756.0, 756.1, 756.2, 756.3, 756.4, 756.5, 756.6, 756.7, 756.8, 756.9, 757.0, 757.1, 757.2, 757.3, 757.4, 757.5, 757.6, 757.7, 757.8, 757.9, 758.0, 758.1, 758.2, 758.3, 758.4, 758.5, 758.6, 758.7, 758.8, 758.9, 759.0, 759.1, 759.2, 759.3, 759.4, 759.5, 759.6, 759.7, 759.8, 759.9, 760.0, 760.1, 760.2, 760.3, 760.4, 760.5, 760.6, 760.7, 760.8, 760.9, 761.0, 761.1, 761.2, 761.3, 761.4, 761.5, 761.6, 761.7, 761.8, 761.9, 762.0, 762.1, 762.2, 762.3, 762.4, 762.5, 762.6, 762.7, 762.8, 762.9, 763.0, 763.1, 763.2, 763.3, 763.4, 763.5, 763.6, 763.7, 763.8, 763.9, 764.0, 764.1
6.5e-05, 0.000121, 0.00022, 0.000392, 0.000683, 0.00117, 0.00195, 0.00319, 0.0051, 0.008, 0.0123, 0.0184, 0.0271, 0.0391, 0.0551, 0.076, 0.103, 0.136, 0.176, 0.224, 0.278, 0.339, 0.405, 0.474, 0.545, 0.614, 0.681, 0.742, 0.796, 0.842, 0.88, 0.909, 0.931, 0.947, 0.959, 0.968, 0.975, 0.981, 0.987, 0.992, 0.996, 0.999, 1.0, 0.999, 0.997, 0.993, 0.988, 0.982, 0.976, 0.969, 0.961, 0.949, 0.934, 0.913, 0.885, 0.849, 0.804, 0.751, 0.691, 0.625, 0.556, 0.485, 0.416, 0.349, 0.287, 0.232, 0.183, 0.142, 0.108, 0.0798, 0.058, 0.0413, 0.0288, 0.0196, 0.0131, 0.00857, 0.00549, 0.00344, 0.00211, 0.00127, 0.000744, 0.000428, 0.000241, 0.000133
band12
778.160657513
768.3, 768.4, 768.5, 768.6, 768.7, 768.8, 768.9, 769.0, 769.1, 769.2, 769.3, 769.4, 769.5, 769.6, 769.7, 769.8, 769.9, 770.0, 770.1, 770.2, 770.3, 770.4, 770.5, 770.6, 770.7, 770.8, 770.9, 771.0, 771.1, 771.2, 771.3, 771.4, 771.5, 771.6, 771.7, 771.8, 771.9, 772.0, 772.1, 772.2, 772.3, 772.4, 772.5, 772.6, 772.7, 772.8, 772.9, 773.0, 773.1, 773.2, 773.3, 773.4, 773.5, 773.6, 773.7, 773.8, 773.9, 774.0, 774.1, 774.2, 774.3, 774.4, 774.5, 774.6, 774.7, 774.8, 774.9, 775.0, 775.1, 775.2, 775.3, 775.4, 775.5, 775.6, 775.7, 775.8, 775.9, 776.0, 776.1, 776.2, 776.3, 776.4, 776.5, 776.6, 776.7, 776.8, 776.9, 777.0, 777.1, 777.2, 777.3, 777.4, 777.5, 777.6, 777.7, 777.8, 777.9, 778.0, 778.1, 778.2, 778.3, 778.4, 778.5, 778.6, 778.7, 778.8, 778.9, 779.0, 779.1, 779.2, 779.3, 779.4, 779.5, 779.6, 779.7, 779.8, 779.9, 780.0, 780.1, 780.2, 780.3, 780.4, 780.5, 780.6, 780.7, 780.8, 780.9, 781.0, 781.1, 781.2, 781.3, 781.4, 781.5, 781.6, 781.7, 781.8, 781.9, 782.0, 782.1, 782.2, 782.3, 782.4, 782.5, 782.6, 782.7, 782.8, 782.9, 783.0, 783.1, 783.2, 783.3, 783.4, 783.5, 783.6, 783.7, 783.8, 783.9, 784.0, 784.1, 784.2, 784.3, 784.4, 784.5, 784.6, 784.7, 784.8, 784.9, 785.0, 785.1, 785.2, 785.3, 785.4, 785.5, 785.6, 785.7, 785.8, 785.9, 786.0, 786.1, 786.2, 786.3, 786.4, 786.5, 786.6, 786.7, 786.8, 786.9, 787.0, 787.1, 787.2, 787.3, 787.4, 787.5, 787.6, 787.7, 787.8
5.62e-05, 0.000105, 0.000192, 0.000345, 0.000604, 0.00104, 0.00174, 0.00286, 0.00461, 0.00727, 0.0112, 0.0169, 0.025, 0.0362, 0.0513, 0.0711, 0.0965, 0.128, 0.167, 0.213, 0.266, 0.326, 0.391, 0.46, 0.53, 0.6, 0.668, 0.73, 0.786, 0.833, 0.872, 0.903, 0.926, 0.943, 0.956, 0.965, 0.972, 0.979, 0.984, 0.99, 0.994, 0.997, 0.999, 0.999, 0.998, 0.996, 0.993, 0.991, 0.989, 0.989, 0.99, 0.993, 0.995, 0.998, 1.0, 1.0, 0.999, 0.997, 0.994, 0.992, 0.99, 0.989, 0.989, 0.991, 0.994, 0.997, 0.999, 1.0, 1.0, 0.998, 0.996, 0.993, 0.99, 0.989, 0.989, 0.99, 0.992, 0.995, 0.998, 0.999, 1.0, 0.999, 0.997, 0.994, 0.991, 0.989, 0.989, 0.989, 0.991, 0.993, 0.996, 0.998, 1.0, 0.999, 0.998, 0.995, 0.993, 0.99, 0.989, 0.989, 0.99, 0.992, 0.995, 0.997, 0.999, 1.0, 0.999, 0.997, 0.994, 0.991, 0.989, 0.988, 0.989, 0.991, 0.993, 0.996, 0.998, 0.999, 0.999, 0.998, 0.995, 0.992, 0.99, 0.988, 0.988, 0.989, 0.992, 0.994, 0.997, 0.999, 0.999, 0.998, 0.996, 0.994, 0.991, 0.989, 0.988, 0.988, 0.99, 0.993, 0.995, 0.998, 0.999, 0.999, 0.998, 0.995, 0.992, 0.99, 0.988, 0.988, 0.989, 0.991, 0.994, 0.996, 0.998, 0.998, 0.997, 0.994, 0.99, 0.985, 0.979, 0.973, 0.966, 0.957, 0.946, 0.93, 0.909, 0.88, 0.843, 0.798, 0.744, 0.684, 0.617, 0.548, 0.477, 0.407, 0.341, 0.28, 0.225, 0.177, 0.137, 0.103, 0.0765, 0.0554, 0.0393, 0.0273, 0.0185, 0.0123, 0.00803, 0.00512, 0.00319, 0.00195, 0.00117, 0.000682, 0.000391, 0.000219
band13
864.627349057
852.3, 852.4, 852.5, 852.6, 852.7, 852.8, 852.9, 853.0, 853.1, 853.2, 853.3, 853.4, 853.5, 853.6, 853.7, 853.8, 853.9, 854.0, 854.1, 854.2, 854.3, 854.4, 854.5, 854.6, 854.7, 854.8, 854.9, 855.0, 855.1, 855.2, 855.3, 855.4, 855.5, 855.6, 855.7, 855.8, 855.9, 856.0, 856.1, 856.2, 856.3, 856.4, 856.5, 856.6, 856.7, 856.8, 856.9, 857.0, 857.1, 857.2, 857.3, 857.4, 857.5, 857.6, 857.7, 857.8, 857.9, 858.0, 858.1, 858.2, 858.3, 858.4, 858.5, 858.6, 858.7, 858.8, 858.9, 859.0, 859.1, 859.2, 859.3, 859.4, 859.5, 859.6, 859.7, 859.8, 859.9, 860.0, 860.1, 860.2, 860.3, 860.4, 860.5, 860.6, 860.7, 860.8, 860.9, 861.0, 861.1, 861.2, 861.3, 861.4, 861.5, 861.6, 861.7, 861.8, 861.9, 862.0, 862.1, 862.2, 862.3, 862.4, 862.5, 862.6, 862.7, 862.8, 862.9, 863.0, 863.1, 863.2, 863.3, 863.4, 863.5, 863.6, 863.7, 863.8, 863.9, 864.0, 864.1, 864.2, 864.3, 864.4, 864.5, 864.6, 864.7, 864.8, 864.9, 865.0, 865.1, 865.2, 865.3, 865.4, 865.5, 865.6, 865.7, 865.8, 865.9, 866.0, 866.1, 866.2, 866.3, 866.4, 866.5, 866.6, 866.7, 866.8, 866.9, 867.0, 867.1, 867.2, 867.3, 867.4, 867.5, 867.6, 867.7, 867.8, 867.9, 868.0, 868.1, 868.2, 868.3, 868.4, 868.5, 868.6, 868.7, 868.8, 868.9, 869.0, 869.1, 869.2, 869.3, 869.4, 869.5, 869.6, 869.7, 869.8, 869.9, 870.0, 870.1, 870.2, 870.3, 870.4, 870.5, 870.6, 870.7, 870.8, 870.9, 871.0, 871.1, 871.2, 871.3, 871.4, 871.5, 871.6, 871.7, 871.8, 871.9, 872.0, 872.1, 872.2, 872.3, 872.4, 872.5, 872.6, 872.7, 872.8, 872.9, 873.0, 873.1, 873.2, 873.3, 873.4, 873.5, 873.6, 873.7, 873.8, 873.9, 874.0, 874.1, 874.2, 874.3, 874.4, 874.5, 874.6, 874.7, 874.8, 874.9, 875.0, 875.1, 875.2, 875.3, 875.4, 875.5, 875.6, 875.7, 875.8, 875.9, 876.0, 876.1, 876.2, 876.3, 876.4, 876.5, 876.6, 876.7, 876.8
7.01e-05, 0.000131, 0.000238, 0.000425, 0.000742, 0.00127, 0.00212, 0.00347, 0.00555, 0.00869, 0.0133, 0.02, 0.0294, 0.0422, 0.0594, 0.0818, 0.11, 0.146, 0.188, 0.238, 0.295, 0.358, 0.425, 0.496, 0.567, 0.637, 0.703, 0.762, 0.814, 0.857, 0.891, 0.918, 0.937, 0.951, 0.961, 0.969, 0.975, 0.981, 0.987, 0.992, 0.996, 0.998, 0.999, 0.999, 0.997, 0.994, 0.991, 0.989, 0.988, 0.989, 0.991, 0.994, 0.996, 0.999, 1.0, 1.0, 0.998, 0.995, 0.992, 0.99, 0.988, 0.988, 0.989, 0.992, 0.995, 0.998, 0.999, 1.0, 0.999, 0.997, 0.994, 0.991, 0.989, 0.988, 0.988, 0.99, 0.993, 0.996, 0.998, 1.0, 1.0, 0.998, 0.995, 0.992, 0.99, 0.988, 0.988, 0.989, 0.991, 0.994, 0.997, 0.999, 1.0, 0.999, 0.997, 0.994, 0.991, 0.989, 0.988, 0.988, 0.99, 0.993, 0.996, 0.998, 1.0, 1.0, 0.998, 0.995, 0.992, 0.99, 0.988, 0.988, 0.989, 0.991, 0.994, 0.997, 0.999, 1.0, 0.999, 0.997, 0.994, 0.991, 0.989, 0.988, 0.988, 0.99, 0.992, 0.995, 0.998, 0.999, 0.999, 0.998, 0.996, 0.993, 0.99, 0.988, 0.987, 0.988, 0.991, 0.994, 0.996, 0.999, 0.999, 0.999, 0.997, 0.994, 0.991, 0.989, 0.987, 0.988, 0.989, 0.992, 0.995, 0.997, 0.999, 0.999, 0.998, 0.996, 0.993, 0.99, 0.988, 0.987, 0.988, 0.99, 0.993, 0.996, 0.998, 0.999, 0.999, 0.997, 0.994, 0.991, 0.989, 0.987, 0.987, 0.989, 0.991, 0.994, 0.997, 0.999, 0.999, 0.998, 0.996, 0.993, 0.99, 0.988, 0.987, 0.988, 0.99, 0.993, 0.996, 0.998, 0.999, 0.999, 0.997, 0.994, 0.991, 0.989, 0.987, 0.987, 0.988, 0.991, 0.994, 0.996, 0.998, 0.998, 0.997, 0.993, 0.989, 0.983, 0.978, 0.972, 0.965, 0.956, 0.945, 0.929, 0.907, 0.878, 0.84, 0.793, 0.738, 0.676, 0.609, 0.538, 0.467, 0.397, 0.331, 0.27, 0.216, 0.169, 0.13, 0.0975, 0.0717, 0.0516, 0.0363, 0.025, 0.0169, 0.0111, 0.0072, 0.00455, 0.00281, 0.0017, 0.00101, 0.000585, 0.000331, 0.000184
band14
884.697163697
877.4, 877.5, 877.6, 877.7, 877.8, 877.9, 878.0, 878.1, 878.2, 878.3, 878.4, 878.5, 878.6, 878.7, 878.8, 878.9, 879.0, 879.1, 879.2, 879.3, 879.4, 879.5, 879.6, 879.7, 879.8, 879.9, 880.0, 880.1, 880.2, 880.3, 880.4, 880.5, 880.6, 880.7, 880.8, 880.9, 881.0, 881.1, 881.2, 881.3, 881.4, 881.5, 881.6, 881.7, 881.8, 881.9, 882.0, 882.1, 882.2, 882.3, 882.4, 882.5, 882.6, 882.7, 882.8, 882.9, 883.0, 883.1, 883.2, 883.3, 883.4, 883.5, 883.6, 883.7, 883.8, 883.9, 884.0, 884.1, 884.2, 884.3, 884.4, 884.5, 884.6, 884.7, 884.8, 884.9, 885.0, 885.1, 885.2, 885.3, 885.4, 885.5, 885.6, 885.7, 885.8, 885.9, 886.0, 886.1, 886.2, 886.3, 886.4, 886.5, 886.6, 886.7, 886.8, 886.9, 887.0, 887.1, 887.2, 887.3, 887.4, 887.5, 887.6, 887.7, 887.8, 887.9, 888.0, 888.1, 888.2, 888.3, 888.4, 888.5, 888.6, 888.7, 888.8, 888.9, 889.0, 889.1, 889.2, 889.3, 889.4, 889.5, 889.6, 889.7, 889.8, 889.9, 890.0, 890.1, 890.2, 890.3, 890.4, 890.5, 890.6, 890.7, 890.8, 890.9, 891.0, 891.1, 891.2, 891.3, 891.4, 891.5, 891.6, 891.7, 891.8, 891.9
7.63e-05, 0.000142, 0.000258, 0.00046, 0.000801, 0.00136, 0.00228, 0.00371, 0.00593, 0.00927, 0.0142, 0.0212, 0.0311, 0.0446, 0.0625, 0.0859, 0.115, 0.152, 0.196, 0.247, 0.305, 0.369, 0.437, 0.508, 0.58, 0.649, 0.714, 0.772, 0.822, 0.864, 0.897, 0.922, 0.94, 0.953, 0.962, 0.97, 0.976, 0.982, 0.988, 0.993, 0.996, 0.999, 0.999, 0.998, 0.996, 0.993, 0.99, 0.988, 0.988, 0.989, 0.991, 0.994, 0.997, 0.999, 1.0, 0.999, 0.998, 0.995, 0.992, 0.989, 0.988, 0.988, 0.989, 0.992, 0.995, 0.998, 1.0, 1.0, 0.999, 0.996, 0.993, 0.99, 0.988, 0.988, 0.988, 0.99, 0.993, 0.996, 0.999, 1.0, 0.999, 0.998, 0.995, 0.992, 0.989, 0.988, 0.988, 0.989, 0.992, 0.995, 0.997, 0.999, 1.0, 0.999, 0.996, 0.993, 0.99, 0.988, 0.987, 0.988, 0.99, 0.993, 0.996, 0.998, 0.999, 0.998, 0.996, 0.992, 0.987, 0.981, 0.975, 0.969, 0.962, 0.952, 0.939, 0.92, 0.895, 0.862, 0.82, 0.769, 0.711, 0.646, 0.576, 0.505, 0.434, 0.366, 0.302, 0.244, 0.193, 0.15, 0.114, 0.0845, 0.0615, 0.0438, 0.0305, 0.0208, 0.0139, 0.00905, 0.00578, 0.00361, 0.00221, 0.00132, 0.000776, 0.000445, 0.000249, 0.000137
band15
899.753104609
892.4, 892.5, 892.6, 892.7, 892.8, 892.9, 893.0, 893.1, 893.2, 893.3, 893.4, 893.5, 893.6, 893.7, 893.8, 893.9, 894.0, 894.1, 894.2, 894.3, 894.4, 894.5, 894.6, 894.7, 894.8, 894.9, 895.0, 895.1, 895.2, 895.3, 895.4, 895.5, 895.6, 895.7, 895.8, 895.9, 896.0, 896.1, 896.2, 896.3, 896.4, 896.5, 896.6, 896.7, 896.8, 896.9, 897.0, 897.1, 897.2, 897.3, 897.4, 897.5, 897.6, 897.7, 897.8, 897.9, 898.0, 898.1, 898.2, 898.3, 898.4, 898.5, 898.6, 898.7, 898.8, 898.9, 899.0, 899.1, 899.2, 899.3, 899.4, 899.5, 899.6, 899.7, 899.8, 899.9, 900.0, 900.1, 900.2, 900.3, 900.4, 900.5, 900.6, 900.7, 900.8, 900.9, 901.0, 901.1, 901.2, 901.3, 901.4, 901.5, 901.6, 901.7, 901.8, 901.9, 902.0, 902.1, 902.2, 902.3, 902.4, 902.5, 902.6, 902.7, 902.8, 902.9, 903.0, 903.1, 903.2, 903.3, 903.4, 903.5, 903.6, 903.7, 903.8, 903.9, 904.0, 904.1, 904.2, 904.3, 904.4, 904.5, 904.6, 904.7, 904.8, 904.9, 905.0, 905.1, 905.2, 905.3, 905.4, 905.5, 905.6, 905.7, 905.8, 905.9, 906.0, 906.1, 906.2, 906.3, 906.4, 906.5, 906.6, 906.7, 906.8, 906.9
5.3e-05, 9.97e-05, 0.000184, 0.000331, 0.000585, 0.00101, 0.00171, 0.00282, 0.00456, 0.00722, 0.0112, 0.017, 0.0252, 0.0365, 0.0519, 0.0721, 0.0981, 0.131, 0.17, 0.218, 0.272, 0.333, 0.399, 0.469, 0.541, 0.612, 0.679, 0.741, 0.796, 0.843, 0.88, 0.909, 0.931, 0.947, 0.958, 0.966, 0.973, 0.979, 0.985, 0.99, 0.994, 0.998, 0.999, 0.999, 0.997, 0.995, 0.992, 0.989, 0.988, 0.988, 0.989, 0.992, 0.995, 0.998, 1.0, 1.0, 0.999, 0.996, 0.993, 0.99, 0.988, 0.988, 0.988, 0.99, 0.993, 0.996, 0.999, 1.0, 1.0, 0.998, 0.995, 0.992, 0.989, 0.988, 0.988, 0.989, 0.992, 0.995, 0.998, 0.999, 1.0, 0.999, 0.996, 0.993, 0.99, 0.988, 0.987, 0.988, 0.99, 0.993, 0.996, 0.998, 1.0, 0.999, 0.998, 0.995, 0.992, 0.989, 0.988, 0.987, 0.989, 0.991, 0.994, 0.997, 0.999, 0.999, 0.997, 0.994, 0.99, 0.984, 0.979, 0.973, 0.966, 0.958, 0.947, 0.932, 0.911, 0.882, 0.846, 0.8, 0.746, 0.684, 0.617, 0.546, 0.474, 0.404, 0.337, 0.276, 0.221, 0.173, 0.133, 0.1, 0.0737, 0.0531, 0.0374, 0.0258, 0.0174, 0.0115, 0.00743, 0.0047, 0.00291, 0.00176, 0.00104, 0.000605, 0.000343, 0.000191
band2
442.302283223
435.0, 435.1, 435.2, 435.3, 435.4, 435.5, 435.6, 435.7, 435.8, 435.9, 436.0, 436.1, 436.2, 436.3, 436.4, 436.5, 436.6, 436.7, 436.8, 436.9, 437.0, 437.1, 437.2, 437.3, 437.4, 437.5, 437.6, 437.7, 437.8, 437.9, 438.0, 438.1, 438.2, 438.3, 438.4, 438.5, 438.6, 438.7, 438.8, 438.9, 439.0, 439.1, 439.2, 439.3, 439.4, 439.5, 439.6, 439.7, 439.8, 439.9, 440.0, 440.1, 440.2, 440.3, 440.4, 440.5, 440.6, 440.7, 440.8, 440.9, 441.0, 441.1, 441.2, 441.3, 441.4, 441.5, 441.6, 441.7, 441.8, 441.9, 442.0, 442.1, 442.2, 442.3, 442.4, 442.5, 442.6, 442.7, 442.8, 442.9, 443.0, 443.1, 443.2, 443.3, 443.4, 443.5, 443.6, 443.7, 443.8, 443.9, 444.0, 444.1, 444.2, 444.3, 444.4, 444.5, 444.6, 444.7, 444.8, 444.9, 445.0, 445.1, 445.2, 445.3, 445.4, 445.5, 445.6, 445.7, 445.8, 445.9, 446.0, 446.1, 446.2, 446.3, 446.4, 446.5, 446.6, 446.7, 446.8, 446.9, 447.0, 447.1, 447.2, 447.3, 447.4, 447.5, 447.6, 447.7, 447.8, 447.9, 448.0, 448.1, 448.2, 448.3, 448.4, 448.5, 448.6, 448.7, 448.8, 448.9, 449.0, 449.1, 449.2, 449.3, 449.4, 449.5
7.03e-05, 0.00013, 0.000236, 0.00042, 0.00073, 0.00124, 0.00207, 0.00338, 0.0054, 0.00844, 0.0129, 0.0193, 0.0284, 0.0407, 0.0572, 0.0788, 0.106, 0.14, 0.181, 0.229, 0.284, 0.345, 0.411, 0.481, 0.551, 0.62, 0.685, 0.745, 0.798, 0.843, 0.879, 0.908, 0.929, 0.945, 0.957, 0.965, 0.972, 0.979, 0.984, 0.989, 0.993, 0.996, 0.997, 0.997, 0.995, 0.993, 0.99, 0.989, 0.988, 0.989, 0.99, 0.993, 0.995, 0.997, 0.998, 0.998, 0.997, 0.995, 0.992, 0.99, 0.989, 0.989, 0.99, 0.992, 0.995, 0.997, 0.999, 0.999, 0.998, 0.996, 0.994, 0.992, 0.99, 0.989, 0.99, 0.992, 0.994, 0.997, 0.999, 0.999, 0.999, 0.998, 0.996, 0.993, 0.991, 0.99, 0.99, 0.991, 0.994, 0.996, 0.998, 1.0, 1.0, 0.999, 0.997, 0.995, 0.992, 0.991, 0.99, 0.991, 0.993, 0.995, 0.998, 0.999, 1.0, 0.999, 0.996, 0.992, 0.987, 0.982, 0.975, 0.968, 0.959, 0.947, 0.931, 0.909, 0.88, 0.843, 0.798, 0.745, 0.685, 0.619, 0.55, 0.48, 0.411, 0.345, 0.284, 0.23, 0.182, 0.141, 0.107, 0.0794, 0.0578, 0.0412, 0.0288, 0.0197, 0.0132, 0.00863, 0.00554, 0.00348, 0.00214, 0.00129, 0.00076, 0.000439, 0.000248, 0.000137
band3
489.626577523
482.3, 482.4, 482.5, 482.6, 482.7, 482.8, 482.9, 483.0, 483.1, 483.2, 483.3, 483.4, 483.5, 483.6, 483.7, 483.8, 483.9, 484.0, 484.1, 484.2, 484.3, 484.4, 484.5, 484.6, 484.7, 484.8, 484.9, 485.0, 485.1, 485.2, 485.3, 485.4, 485.5, 485.6, 485.7, 485.8, 485.9, 486.0, 486.1, 486.2, 486.3, 486.4, 486.5, 486.6, 486.7, 486.8, 486.9, 487.0, 487.1, 487.2, 487.3, 487.4, 487.5, 487.6, 487.7, 487.8, 487.9, 488.0, 488.1, 488.2, 488.3, 488.4, 488.5, 488.6, 488.7, 488.8, 488.9, 489.0, 489.1, 489.2, 489.3, 489.4, 489.5, 489.6, 489.7, 489.8, 489.9, 490.0, 490.1, 490.2, 490.3, 490.4, 490.5, 490.6, 490.7, 490.8, 490.9, 491.0, 491.1, 491.2, 491.3, 491.4, 491.5, 491.6, 491.7, 491.8, 491.9, 492.0, 492.1, 492.2, 492.3, 492.4, 492.5, 492.6, 492.7, 492.8, 492.9, 493.0, 493.1, 493.2, 493.3, 493.4, 493.5, 493.6, 493.7, 493.8, 493.9, 494.0, 494.1, 494.2, 494.3, 494.4, 494.5, 494.6, 494.7, 494.8, 494.9, 495.0, 495.1, 495.2, 495.3, 495.4, 495.5, 495.6, 495.7, 495.8, 495.9, 496.0, 496.1, 496.2, 496.3, 496.4, 496.5, 496.6, 496.7, 496.8, 496.9
8.29e-05, 0.000151, 0.00027, 0.000473, 0.00081, 0.00136, 0.00224, 0.00361, 0.00569, 0.0088, 0.0133, 0.0198, 0.0288, 0.041, 0.0572, 0.0783, 0.105, 0.138, 0.177, 0.224, 0.277, 0.336, 0.4, 0.467, 0.536, 0.604, 0.668, 0.729, 0.782, 0.829, 0.867, 0.898, 0.922, 0.94, 0.954, 0.964, 0.972, 0.979, 0.985, 0.99, 0.994, 0.996, 0.998, 0.998, 0.997, 0.995, 0.993, 0.992, 0.991, 0.991, 0.992, 0.994, 0.996, 0.998, 0.999, 0.999, 0.998, 0.997, 0.995, 0.993, 0.991, 0.991, 0.992, 0.994, 0.996, 0.998, 0.999, 1.0, 0.999, 0.998, 0.996, 0.994, 0.992, 0.991, 0.992, 0.993, 0.995, 0.997, 0.999, 1.0, 1.0, 0.999, 0.997, 0.995, 0.993, 0.992, 0.992, 0.993, 0.994, 0.996, 0.998, 1.0, 1.0, 0.999, 0.998, 0.996, 0.994, 0.993, 0.992, 0.992, 0.993, 0.995, 0.997, 0.999, 0.999, 0.998, 0.996, 0.993, 0.989, 0.983, 0.977, 0.97, 0.96, 0.948, 0.933, 0.912, 0.884, 0.85, 0.807, 0.757, 0.7, 0.637, 0.57, 0.502, 0.434, 0.368, 0.307, 0.251, 0.201, 0.158, 0.121, 0.0915, 0.0677, 0.049, 0.0348, 0.0242, 0.0165, 0.011, 0.00721, 0.00462, 0.0029, 0.00179, 0.00108, 0.000636, 0.000368, 0.000209, 0.000116
band4
509.564329959
502.2, 502.3, 502.4, 502.5, 502.6, 502.7, 502.8, 502.9, 503.0, 503.1, 503.2, 503.3, 503.4, 503.5, 503.6, 503.7, 503.8, 503.9, 504.0, 504.1, 504.2, 504.3, 504.4, 504.5, 504.6, 504.7, 504.8, 504.9, 505.0, 505.1, 505.2, 505.3, 505.4, 505.5, 505.6, 505.7, 505.8, 505.9, 506.0, 506.1, 506.2, 506.3, 506.4, 506.5, 506.6, 506.7, 506.8, 506.9, 507.0, 507.1, 507.2, 507.3, 507.4, 507.5, 507.6, 507.7, 507.8, 507.9, 508.0, 508.1, 508.2, 508.3, 508.4, 508.5, 508.6, 508.7, 508.8, 508.9, 509.0, 509.1, 509.2, 509.3, 509.4, 509.5, 509.6, 509.7, 509.8, 509.9, 510.0, 510.1, 510.2, 510.3, 510.4, 510.5, 510.6, 510.7, 510.8, 510.9, 511.0, 511.1, 511.2, 511.3, 511.4, 511.5, 511.6, 511.7, 511.8, 511.9, 512.0, 512.1, 512.2, 512.3, 512.4, 512.5, 512.6, 512.7, 512.8, 512.9, 513.0, 513.1, 513.2, 513.3, 513.4, 513.5, 513.6, 513.7, 513.8, 513.9, 514.0, 514.1, 514.2, 514.3, 514.4, 514.5, 514.6, 514.7, 514.8, 514.9, 515.0, 515.1, 515.2, 515.3, 515.4, 515.5, 515.6, 515.7, 515.8, 515.9, 516.0, 516.1, 516.2, 516.3, 516.4, 516.5, 516.6, 516.7, 516.8
7.05e-05, 0.000129, 0.000231, 0.000406, 0.000698, 0.00118, 0.00194, 0.00314, 0.00498, 0.00774, 0.0118, 0.0176, 0.0257, 0.0368, 0.0516, 0.0709, 0.0955, 0.126, 0.163, 0.207, 0.258, 0.315, 0.377, 0.443, 0.511, 0.579, 0.645, 0.707, 0.763, 0.812, 0.853, 0.887, 0.914, 0.934, 0.949, 0.961, 0.97, 0.977, 0.983, 0.988, 0.993, 0.996, 0.998, 0.998, 0.998, 0.996, 0.995, 0.993, 0.992, 0.992, 0.992, 0.994, 0.996, 0.998, 0.999, 1.0, 0.999, 0.998, 0.996, 0.994, 0.992, 0.992, 0.992, 0.993, 0.995, 0.997, 0.999, 1.0, 1.0, 0.999, 0.997, 0.995, 0.993, 0.992, 0.992, 0.993, 0.994, 0.996, 0.998, 1.0, 1.0, 0.999, 0.998, 0.996, 0.994, 0.993, 0.992, 0.992, 0.994, 0.996, 0.998, 0.999, 1.0, 1.0, 0.999, 0.997, 0.995, 0.993, 0.992, 0.992, 0.993, 0.995, 0.997, 0.998, 0.999, 0.999, 0.997, 0.994, 0.99, 0.985, 0.979, 0.973, 0.964, 0.953, 0.939, 0.92, 0.895, 0.863, 0.824, 0.777, 0.723, 0.662, 0.597, 0.53, 0.462, 0.395, 0.332, 0.273, 0.221, 0.175, 0.136, 0.104, 0.0774, 0.0567, 0.0406, 0.0286, 0.0197, 0.0133, 0.00878, 0.00569, 0.00361, 0.00225, 0.00137, 0.000819, 0.000479, 0.000275, 0.000154
band5
559.440262161
552.1, 552.2, 552.3, 552.4, 552.5, 552.6, 552.7, 552.8, 552.9, 553.0, 553.1, 553.2, 553.3, 553.4, 553.5, 553.6, 553.7, 553.8, 553.9, 554.0, 554.1, 554.2, 554.3, 554.4, 554.5, 554.6, 554.7, 554.8, 554.9, 555.0, 555.1, 555.2, 555.3, 555.4, 555.5, 555.6, 555.7, 555.8, 555.9, 556.0, 556.1, 556.2, 556.3, 556.4, 556.5, 556.6, 556.7, 556.8, 556.9, 557.0, 557.1, 557.2, 557.3, 557.4, 557.5, 557.6, 557.7, 557.8, 557.9, 558.0, 558.1, 558.2, 558.3, 558.4, 558.5, 558.6, 558.7, 558.8, 558.9, 559.0, 559.1, 559.2, 559.3, 559.4, 559.5, 559.6, 559.7, 559.8, 559.9, 560.0, 560.1, 560.2, 560.3, 560.4, 560.5, 560.6, 560.7, 560.8, 560.9, 561.0, 561.1, 561.2, 561.3, 561.4, 561.5, 561.6, 561.7, 561.8, 561.9, 562.0, 562.1, 562.2, 562.3, 562.4, 562.5, 562.6, 562.7, 562.8, 562.9, 563.0, 563.1, 563.2, 563.3, 563.4, 563.5, 563.6, 563.7, 563.8, 563.9, 564.0, 564.1, 564.2, 564.3, 564.4, 564.5, 564.6, 564.7, 564.8, 564.9, 565.0, 565.1, 565.2, 565.3, 565.4, 565.5, 565.6, 565.7, 565.8, 565.9, 566.0, 566.1, 566.2, 566.3, 566.4, 566.5, 566.6, 566.7
8.71e-05, 0.000158, 0.000281, 0.000489, 0.000834, 0.00139, 0.00228, 0.00366, 0.00576, 0.00888, 0.0134, 0.0198, 0.0288, 0.0409, 0.057, 0.0778, 0.104, 0.137, 0.176, 0.221, 0.274, 0.332, 0.395, 0.462, 0.53, 0.597, 0.662, 0.722, 0.776, 0.824, 0.863, 0.895, 0.92, 0.939, 0.953, 0.964, 0.972, 0.979, 0.985, 0.99, 0.994, 0.997, 0.999, 0.999, 0.998, 0.997, 0.995, 0.993, 0.992, 0.992, 0.993, 0.995, 0.997, 0.999, 1.0, 1.0, 0.999, 0.998, 0.996, 0.994, 0.993, 0.992, 0.993, 0.994, 0.996, 0.998, 0.999, 1.0, 1.0, 0.998, 0.997, 0.995, 0.993, 0.992, 0.992, 0.993, 0.995, 0.997, 0.999, 1.0, 1.0, 0.999, 0.997, 0.996, 0.994, 0.992, 0.992, 0.993, 0.994, 0.996, 0.998, 0.999, 1.0, 0.999, 0.998, 0.996, 0.994, 0.993, 0.992, 0.992, 0.993, 0.995, 0.997, 0.998, 0.999, 0.998, 0.996, 0.993, 0.989, 0.984, 0.978, 0.971, 0.962, 0.95, 0.935, 0.915, 0.889, 0.856, 0.815, 0.767, 0.711, 0.65, 0.585, 0.517, 0.449, 0.383, 0.321, 0.263, 0.212, 0.168, 0.13, 0.0987, 0.0734, 0.0536, 0.0383, 0.0269, 0.0184, 0.0124, 0.00819, 0.00529, 0.00335, 0.00208, 0.00126, 0.000753, 0.00044, 0.000252, 0.000141
band6
619.349162711
612.0, 612.1, 612.2, 612.3, 612.4, 612.5, 612.6, 612.7, 612.8, 612.9, 613.0, 613.1, 613.2, 613.3, 613.4, 613.5, 613.6, 613.7, 613.8, 613.9, 614.0, 614.1, 614.2, 614.3, 614.4, 614.5, 614.6, 614.7, 614.8, 614.9, 615.0, 615.1, 615.2, 615.3, 615.4, 615.5, 615.6, 615.7, 615.8, 615.9, 616.0, 616.1, 616.2, 616.3, 616.4, 616.5, 616.6, 616.7, 616.8, 616.9, 617.0, 617.1, 617.2, 617.3, 617.4, 617.5, 617.6, 617.7, 617.8, 617.9, 618.0, 618.1, 618.2, 618.3, 618.4, 618.5, 618.6, 618.7, 618.8, 618.9, 619.0, 619.1, 619.2, 619.3, 619.4, 619.5, 619.6, 619.7, 619.8, 619.9, 620.0, 620.1, 620.2, 620.3, 620.4, 620.5, 620.6, 620.7, 620.8, 620.9, 621.0, 621.1, 621.2, 621.3, 621.4, 621.5, 621.6, 621.7, 621.8, 621.9, 622.0, 622.1, 622.2, 622.3, 622.4, 622.5, 622.6, 622.7, 622.8, 622.9, 623.0, 623.1, 623.2, 623.3, 623.4, 623.5, 623.6, 623.7, 623.8, 623.9, 624.0, 624.1, 624.2, 624.3, 624.4, 624.5, 624.6, 624.7, 624.8, 624.9, 625.0, 625.1, 625.2, 625.3, 625.4, 625.5, 625.6, 625.7, 625.8, 625.9, 626.0, 626.1, 626.2, 626.3, 626.4, 626.5, 626.6
7.8e-05, 0.000142, 0.000255, 0.000446, 0.000766, 0.00129, 0.00212, 0.00342, 0.00541, 0.00838, 0.0127, 0.0189, 0.0276, 0.0393, 0.055, 0.0754, 0.101, 0.133, 0.172, 0.218, 0.27, 0.328, 0.391, 0.458, 0.527, 0.595, 0.66, 0.721, 0.776, 0.823, 0.863, 0.895, 0.92, 0.939, 0.953, 0.964, 0.972, 0.979, 0.985, 0.99, 0.994, 0.997, 0.999, 0.999, 0.998, 0.997, 0.995, 0.993, 0.992, 0.992, 0.993, 0.995, 0.997, 0.999, 1.0, 1.0, 0.999, 0.998, 0.996, 0.994, 0.992, 0.992, 0.992, 0.993, 0.995, 0.997, 0.999, 1.0, 1.0, 0.998, 0.996, 0.994, 0.993, 0.991, 0.991, 0.992, 0.994, 0.996, 0.998, 0.999, 1.0, 0.999, 0.997, 0.995, 0.993, 0.992, 0.991, 0.992, 0.993, 0.995, 0.997, 0.999, 1.0, 0.999, 0.998, 0.996, 0.994, 0.992, 0.991, 0.991, 0.992, 0.994, 0.996, 0.997, 0.998, 0.998, 0.996, 0.993, 0.989, 0.984, 0.978, 0.971, 0.963, 0.952, 0.938, 0.92, 0.895, 0.863, 0.823, 0.776, 0.721, 0.66, 0.595, 0.527, 0.458, 0.391, 0.328, 0.27, 0.217, 0.172, 0.133, 0.101, 0.0752, 0.0549, 0.0392, 0.0275, 0.0188, 0.0127, 0.00833, 0.00537, 0.0034, 0.0021, 0.00128, 0.000758, 0.000441, 0.000252, 0.000141
band7
664.322430724
657.0, 657.1, 657.2, 657.3, 657.4, 657.5, 657.6, 657.7, 657.8, 657.9, 658.0, 658.1, 658.2, 658.3, 658.4, 658.5, 658.6, 658.7, 658.8, 658.9, 659.0, 659.1, 659.2, 659.3, 659.4, 659.5, 659.6, 659.7, 659.8, 659.9, 660.0, 660.1, 660.2, 660.3, 660.4, 660.5, 660.6, 660.7, 660.8, 660.9, 661.0, 661.1, 661.2, 661.3, 661.4, 661.5, 661.6, 661.7, 661.8, 661.9, 662.0, 662.1, 662.2, 662.3, 662.4, 662.5, 662.6, 662.7, 662.8, 662.9, 663.0, 663.1, 663.2, 663.3, 663.4, 663.5, 663.6, 663.7, 663.8, 663.9, 664.0, 664.1, 664.2, 664.3, 664.4, 664.5, 664.6, 664.7, 664.8, 664.9, 665.0, 665.1, 665.2, 665.3, 665.4, 665.5, 665.6, 665.7, 665.8, 665.9, 666.0, 666.1, 666.2, 666.3, 666.4, 666.5, 666.6, 666.7, 666.8, 666.9, 667.0, 667.1, 667.2, 667.3, 667.4, 667.5, 667.6, 667.7, 667.8, 667.9, 668.0, 668.1, 668.2, 668.3, 668.4, 668.5, 668.6, 668.7, 668.8, 668.9, 669.0, 669.1, 669.2, 669.3, 669.4, 669.5, 669.6, 669.7, 669.8, 669.9, 670.0, 670.1, 670.2, 670.3, 670.4, 670.5, 670.6, 670.7, 670.8, 670.9, 671.0, 671.1, 671.2, 671.3, 671.4, 671.5, 671.6
8.46e-05, 0.000155, 0.000277, 0.000485, 0.000833, 0.0014, 0.00231, 0.00372, 0.00588, 0.0091, 0.0138, 0.0205, 0.0298, 0.0424, 0.0592, 0.081, 0.108, 0.142, 0.183, 0.231, 0.285, 0.345, 0.41, 0.479, 0.548, 0.616, 0.681, 0.74, 0.793, 0.839, 0.876, 0.905, 0.928, 0.945, 0.957, 0.967, 0.974, 0.981, 0.987, 0.991, 0.995, 0.998, 0.999, 0.999, 0.998, 0.996, 0.994, 0.992, 0.991, 0.991, 0.993, 0.995, 0.997, 0.999, 1.0, 1.0, 0.999, 0.997, 0.995, 0.993, 0.991, 0.991, 0.992, 0.994, 0.996, 0.998, 0.999, 1.0, 0.999, 0.998, 0.996, 0.993, 0.992, 0.991, 0.991, 0.992, 0.994, 0.997, 0.999, 1.0, 1.0, 0.998, 0.996, 0.994, 0.992, 0.991, 0.99, 0.991, 0.993, 0.995, 0.997, 0.999, 1.0, 0.999, 0.997, 0.995, 0.993, 0.991, 0.99, 0.991, 0.992, 0.994, 0.996, 0.998, 0.998, 0.998, 0.996, 0.992, 0.988, 0.983, 0.977, 0.97, 0.961, 0.95, 0.936, 0.916, 0.89, 0.857, 0.815, 0.766, 0.709, 0.647, 0.58, 0.511, 0.442, 0.375, 0.312, 0.255, 0.204, 0.16, 0.123, 0.0927, 0.0684, 0.0495, 0.035, 0.0243, 0.0165, 0.011, 0.00716, 0.00457, 0.00286, 0.00175, 0.00105, 0.000617, 0.000355, 0.0002, 0.00011
band8
680.571670334
674.5, 674.6, 674.7, 674.8, 674.9, 675.0, 675.1, 675.2, 675.3, 675.4, 675.5, 675.6, 675.7, 675.8, 675.9, 676.0, 676.1, 676.2, 676.3, 676.4, 676.5, 676.6, 676.7, 676.8, 676.9, 677.0, 677.1, 677.2, 677.3, 677.4, 677.5, 677.6, 677.7, 677.8, 677.9, 678.0, 678.1, 678.2, 678.3, 678.4, 678.5, 678.6, 678.7, 678.8, 678.9, 679.0, 679.1, 679.2, 679.3, 679.4, 679.5, 679.6, 679.7, 679.8, 679.9, 680.0, 680.1, 680.2, 680.3, 680.4, 680.5, 680.6, 680.7, 680.8, 680.9, 681.0, 681.1, 681.2, 681.3, 681.4, 681.5, 681.6, 681.7, 681.8, 681.9, 682.0, 682.1, 682.2, 682.3, 682.4, 682.5, 682.6, 682.7, 682.8, 682.9, 683.0, 683.1, 683.2, 683.3, 683.4, 683.5, 683.6, 683.7, 683.8, 683.9, 684.0, 684.1, 684.2, 684.3, 684.4, 684.5, 684.6, 684.7, 684.8, 684.9, 685.0, 685.1, 685.2, 685.3, 685.4, 685.5, 685.6, 685.7, 685.8, 685.9, 686.0, 686.1, 686.2, 686.3, 686.4, 686.5, 686.6
8.22e-05, 0.000151, 0.00027, 0.000475, 0.000817, 0.00138, 0.00227, 0.00367, 0.00581, 0.00901, 0.0137, 0.0203, 0.0296, 0.0423, 0.0591, 0.0808, 0.108, 0.142, 0.183, 0.231, 0.286, 0.346, 0.412, 0.48, 0.55, 0.618, 0.683, 0.743, 0.795, 0.841, 0.878, 0.907, 0.929, 0.946, 0.958, 0.967, 0.975, 0.981, 0.987, 0.991, 0.995, 0.998, 0.999, 0.999, 0.998, 0.996, 0.993, 0.992, 0.991, 0.991, 0.992, 0.995, 0.997, 0.999, 1.0, 1.0, 0.999, 0.997, 0.994, 0.992, 0.991, 0.991, 0.991, 0.993, 0.996, 0.998, 0.999, 1.0, 0.999, 0.998, 0.995, 0.993, 0.991, 0.99, 0.991, 0.992, 0.994, 0.996, 0.998, 0.999, 0.998, 0.996, 0.993, 0.988, 0.983, 0.977, 0.97, 0.962, 0.951, 0.937, 0.917, 0.891, 0.858, 0.817, 0.767, 0.71, 0.647, 0.58, 0.511, 0.442, 0.375, 0.312, 0.254, 0.203, 0.159, 0.122, 0.0922, 0.0679, 0.049, 0.0347, 0.024, 0.0163, 0.0108, 0.00704, 0.00449, 0.0028, 0.00171, 0.00102, 0.0006, 0.000344, 0.000194, 0.000107
band9
708.080139841
700.7, 700.8, 700.9, 701.0, 701.1, 701.2, 701.3, 701.4, 701.5, 701.6, 701.7, 701.8, 701.9, 702.0, 702.1, 702.2, 702.3, 702.4, 702.5, 702.6, 702.7, 702.8, 702.9, 703.0, 703.1, 703.2, 703.3, 703.4, 703.5, 703.6, 703.7, 703.8, 703.9, 704.0, 704.1, 704.2, 704.3, 704.4, 704.5, 704.6, 704.7, 704.8, 704.9, 705.0, 705.1, 705.2, 705.3, 705.4, 705.5, 705.6, 705.7, 705.8, 705.9, 706.0, 706.1, 706.2, 706.3, 706.4, 706.5, 706.6, 706.7, 706.8, 706.9, 707.0, 707.1, 707.2, 707.3, 707.4, 707.5, 707.6, 707.7, 707.8, 707.9, 708.0, 708.1, 708.2, 708.3, 708.4, 708.5, 708.6, 708.7, 708.8, 708.9, 709.0, 709.1, 709.2, 709.3, 709.4, 709.5, 709.6, 709.7, 709.8, 709.9, 710.0, 710.1, 710.2, 710.3, 710.4, 710.5, 710.6, 710.7, 710.8, 710.9, 711.0, 711.1, 711.2, 711.3, 711.4, 711.5, 711.6, 711.7, 711.8, 711.9, 712.0, 712.1, 712.2, 712.3, 712.4, 712.5, 712.6, 712.7, 712.8, 712.9, 713.0, 713.1, 713.2, 713.3, 713.4, 713.5, 713.6, 713.7, 713.8, 713.9, 714.0, 714.1, 714.2, 714.3, 714.4, 714.5, 714.6, 714.7, 714.8, 714.9, 715.0, 715.1, 715.2, 715.3
5.41e-05, 0.000101, 0.000184, 0.000328, 0.000574, 0.000982, 0.00165, 0.0027, 0.00434, 0.00684, 0.0105, 0.0159, 0.0235, 0.034, 0.0482, 0.0669, 0.091, 0.121, 0.158, 0.202, 0.253, 0.31, 0.373, 0.441, 0.51, 0.58, 0.647, 0.711, 0.768, 0.817, 0.859, 0.892, 0.918, 0.937, 0.952, 0.962, 0.97, 0.977, 0.983, 0.989, 0.993, 0.997, 0.999, 0.999, 0.998, 0.997, 0.994, 0.992, 0.991, 0.99, 0.991, 0.993, 0.995, 0.998, 0.999, 1.0, 0.999, 0.998, 0.995, 0.993, 0.991, 0.99, 0.99, 0.992, 0.994, 0.996, 0.998, 1.0, 1.0, 0.999, 0.996, 0.994, 0.992, 0.99, 0.99, 0.991, 0.992, 0.995, 0.997, 0.999, 1.0, 0.999, 0.997, 0.995, 0.993, 0.991, 0.99, 0.99, 0.991, 0.993, 0.996, 0.998, 0.999, 0.999, 0.998, 0.996, 0.994, 0.991, 0.99, 0.989, 0.99, 0.992, 0.994, 0.997, 0.998, 0.998, 0.997, 0.994, 0.991, 0.986, 0.98, 0.974, 0.967, 0.958, 0.946, 0.93, 0.909, 0.88, 0.844, 0.799, 0.747, 0.687, 0.622, 0.553, 0.483, 0.415, 0.349, 0.287, 0.232, 0.184, 0.143, 0.109, 0.0809, 0.059, 0.0421, 0.0295, 0.0202, 0.0135, 0.00889, 0.00572, 0.0036, 0.00222, 0.00134, 0.000793, 0.000459, 0.00026, 0.000144
c2
band1
412.433615778
405.2, 405.3, 405.4, 405.5, 405.6, 405.7, 405.8, 405.9, 406.0, 406.1, 406.2, 406.3, 406.4, 406.5, 406.6, 406.7, 406.8, 406.9, 407.0, 407.1, 407.2, 407.3, 407.4, 407.5, 407.6, 407.7, 407.8, 407.9, 408.0, 408.1, 408.2, 408.3, 408.4, 408.5, 408.6, 408.7, 408.8, 408.9, 409.0, 409.1, 409.2, 409.3, 409.4, 409.5, 409.6, 409.7, 409.8, 409.9, 410.0, 410.1, 410.2, 410.3, 410.4, 410.5, 410.6, 410.7, 410.8, 410.9, 411.0, 411.1, 411.2, 411.3, 411.4, 411.5, 411.6, 411.7, 411.8, 411.9, 412.0, 412.1, 412.2, 412.3, 412.4, 412.5, 412.6, 412.7, 412.8, 412.9, 413.0, 413.1, 413.2, 413.3, 413.4, 413.5, 413.6, 413.7, 413.8, 413.9, 414.0, 414.1, 414.2, 414.3, 414.4, 414.5, 414.6, 414.7, 414.8, 414.9, 415.0, 415.1, 415.2, 415.3, 415.4, 415.5, 415.6, 415.7, 415.8, 415.9, 416.0, 416.1, 416.2, 416.3, 416.4, 416.5, 416.6, 416.7, 416.8, 416.9, 417.0, 417.1, 417.2, 417.3, 417.4, 417.5, 417.6, 417.7, 417.8, 417.9, 418.0, 418.1, 418.2, 418.3, 418.4, 418.5, 418.6, 418.7, 418.8, 418.9, 419.0, 419.1, 419.2, 419.3, 419.4, 419.5, 419.6
7.69e-05, 0.000144, 0.000263, 0.000471, 0.000825, 0.00141, 0.00237, 0.00388, 0.00621, 0.00974, 0.0149, 0.0224, 0.0328, 0.0471, 0.0661, 0.0907, 0.122, 0.16, 0.206, 0.259, 0.319, 0.385, 0.455, 0.527, 0.599, 0.668, 0.731, 0.787, 0.835, 0.874, 0.904, 0.926, 0.942, 0.954, 0.962, 0.969, 0.975, 0.981, 0.986, 0.991, 0.994, 0.996, 0.996, 0.994, 0.991, 0.988, 0.986, 0.985, 0.985, 0.987, 0.989, 0.993, 0.995, 0.997, 0.997, 0.996, 0.994, 0.991, 0.988, 0.986, 0.986, 0.987, 0.989, 0.992, 0.995, 0.997, 0.998, 0.998, 0.996, 0.993, 0.99, 0.988, 0.987, 0.987, 0.989, 0.992, 0.995, 0.997, 0.999, 0.999, 0.998, 0.995, 0.992, 0.99, 0.988, 0.988, 0.989, 0.991, 0.994, 0.997, 0.999, 1.0, 0.999, 0.997, 0.994, 0.992, 0.989, 0.988, 0.989, 0.991, 0.994, 0.997, 0.999, 1.0, 0.999, 0.997, 0.993, 0.988, 0.983, 0.977, 0.97, 0.963, 0.953, 0.939, 0.92, 0.894, 0.86, 0.817, 0.765, 0.706, 0.64, 0.57, 0.498, 0.427, 0.359, 0.295, 0.238, 0.188, 0.145, 0.11, 0.0813, 0.0589, 0.0417, 0.029, 0.0196, 0.013, 0.00847, 0.00539, 0.00335, 0.00204, 0.00121, 0.000706, 0.000402, 0.000224, 0.000122
band10
753.123045597
747.0, 747.1, 747.2, 747.3, 747.4, 747.5, 747.6, 747.7, 747.8, 747.9, 748.0, 748.1, 748.2, 748.3, 748.4, 748.5, 748.6, 748.7, 748.8, 748.9, 749.0, 749.1, 749.2, 749.3, 749.4, 749.5, 749.6, 749.7, 749.8, 749.9, 750.0, 750.1, 750.2, 750.3, 750.4, 750.5, 750.6, 750.7, 750.8, 750.9, 751.0, 751.1, 751.2, 751.3, 751.4, 751.5, 751.6, 751.7, 751.8, 751.9, 752.0, 752.1, 752.2, 752.3, 752.4, 752.5, 752.6, 752.7, 752.8, 752.9, 753.0, 753.1, 753.2, 753.3, 753.4, 753.5, 753.6, 753.7, 753.8, 753.9, 754.0, 754.1, 754.2, 754.3, 754.4, 754.5, 754.6, 754.7, 754.8, 754.9, 755.0, 755.1, 755.2, 755.3, 755.4, 755.5, 755.6, 755.7, 755.8, 755.9, 756.0, 756.1, 756.2, 756.3, 756.4, 756.5, 756.6, 756.7, 756.8, 756.9, 757.0, 757.1, 757.2, 757.3, 757.4, 757.5, 757.6, 757.7, 757.8, 757.9, 758.0, 758.1, 758.2, 758.3, 758.4, 758.5, 758.6, 758.7, 758.8, 758.9, 759.0
5.18e-05, 9.7e-05, 0.000178, 0.000319, 0.00056, 0.000963, 0.00162, 0.00267, 0.00431, 0.0068, 0.0105, 0.0159, 0.0236, 0.0342, 0.0485, 0.0675, 0.0919, 0.123, 0.16, 0.205, 0.256, 0.315, 0.379, 0.447, 0.517, 0.587, 0.655, 0.718, 0.775, 0.824, 0.865, 0.897, 0.922, 0.94, 0.953, 0.963, 0.971, 0.978, 0.984, 0.989, 0.993, 0.997, 0.999, 0.999, 0.998, 0.996, 0.994, 0.991, 0.99, 0.989, 0.99, 0.992, 0.995, 0.998, 0.999, 1.0, 0.999, 0.997, 0.995, 0.992, 0.99, 0.989, 0.99, 0.991, 0.994, 0.996, 0.998, 1.0, 1.0, 0.998, 0.996, 0.993, 0.991, 0.989, 0.989, 0.99, 0.992, 0.995, 0.997, 0.999, 0.999, 0.998, 0.995, 0.991, 0.986, 0.98, 0.974, 0.967, 0.958, 0.946, 0.931, 0.909, 0.881, 0.844, 0.799, 0.746, 0.685, 0.619, 0.55, 0.479, 0.41, 0.344, 0.283, 0.228, 0.18, 0.139, 0.105, 0.078, 0.0567, 0.0403, 0.028, 0.0191, 0.0127, 0.00832, 0.00532, 0.00333, 0.00204, 0.00122, 0.000719, 0.000413, 0.000232
band11
760.007913967
755.8, 755.9, 756.0, 756.1, 756.2, 756.3, 756.4, 756.5, 756.6, 756.7, 756.8, 756.9, 757.0, 757.1, 757.2, 757.3, 757.4, 757.5, 757.6, 757.7, 757.8, 757.9, 758.0, 758.1, 758.2, 758.3, 758.4, 758.5, 758.6, 758.7, 758.8, 758.9, 759.0, 759.1, 759.2, 759.3, 759.4, 759.5, 759.6, 759.7, 759.8, 759.9, 760.0, 760.1, 760.2, 760.3, 760.4, 760.5, 760.6, 760.7, 760.8, 760.9, 761.0, 761.1, 761.2, 761.3, 761.4, 761.5, 761.6, 761.7, 761.8, 761.9, 762.0, 762.1, 762.2, 762.3, 762.4, 762.5, 762.6, 762.7, 762.8, 762.9, 763.0, 763.1, 763.2, 763.3, 763.4, 763.5, 763.6, 763.7, 763.8, 763.9, 764.0, 764.1
6.5e-05, 0.000121, 0.00022, 0.000392, 0.000683, 0.00117, 0.00195, 0.00319, 0.0051, 0.008, 0.0123, 0.0184, 0.0271, 0.0391, 0.0551, 0.076, 0.103, 0.136, 0.176, 0.224, 0.278, 0.339, 0.405, 0.474, 0.545, 0.614, 0.681, 0.742, 0.796, 0.842, 0.88, 0.909, 0.931, 0.947, 0.959, 0.968, 0.975, 0.981, 0.987, 0.992, 0.996, 0.999, 1.0, 0.999, 0.997, 0.993, 0.988, 0.982, 0.976, 0.969, 0.961, 0.949, 0.934, 0.913, 0.885, 0.849, 0.804, 0.751, 0.691, 0.625, 0.556, 0.485, 0.416, 0.349, 0.287, 0.232, 0.183, 0.142, 0.108, 0.0798, 0.058, 0.0413, 0.0288, 0.0196, 0.0131, 0.00857, 0.00549, 0.00344, 0.00211, 0.00127, 0.000744, 0.000428, 0.000241, 0.000133
band12
778.160657513
768.3, 768.4, 768.5, 768.6, 768.7, 768.8, 768.9, 769.0, 769.1, 769.2, 769.3, 769.4, 769.5, 769.6, 769.7, 769.8, 769.9, 770.0, 770.1, 770.2, 770.3, 770.4, 770.5, 770.6, 770.7, 770.8, 770.9, 771.0, 771.1, 771.2, 771.3, 771.4, 771.5, 771.6, 771.7, 771.8, 771.9, 772.0, 772.1, 772.2, 772.3, 772.4, 772.5, 772.6, 772.7, 772.8, 772.9, 773.0, 773.1, 773.2, 773.3, 773.4, 773.5, 773.6, 773.7, 773.8, 773.9, 774.0, 774.1, 774.2, 774.3, 774.4, 774.5, 774.6, 774.7, 774.8, 774.9, 775.0, 775.1, 775.2, 775.3, 775.4, 775.5, 775.6, 775.7, 775.8, 775.9, 776.0, 776.1, 776.2, 776.3, 776.4, 776.5, 776.6, 776.7, 776.8, 776.9, 777.0, 777.1, 777.2, 777.3, 777.4, 777.5, 777.6, 777.7, 777.8, 777.9, 778.0, 778.1, 778.2, 778.3, 778.4, 778.5, 778.6, 778.7, 778.8, 778.9, 779.0, 779.1, 779.2, 779.3, 779.4, 779.5, 779.6, 779.7, 779.8, 779.9, 780.0, 780.1, 780.2, 780.3, 780.4, 780.5, 780.6, 780.7, 780.8, 780.9, 781.0, 781.1, 781.2, 781.3, 781.4, 781.5, 781.6, 781.7, 781.8, 781.9, 782.0, 782.1, 782.2, 782.3, 782.4, 782.5, 782.6, 782.7, 782.8, 782.9, 783.0, 783.1, 783.2, 783.3, 783.4, 783.5, 783.6, 783.7, 783.8, 783.9, 784.0, 784.1, 784.2, 784.3, 784.4, 784.5, 784.6, 784.7, 784.8, 784.9, 785.0, 785.1, 785.2, 785.3, 785.4, 785.5, 785.6, 785.7, 785.8, 785.9, 786.0, 786.1, 786.2, 786.3, 786.4, 786.5, 786.6, 786.7, 786.8, 786.9, 787.0, 787.1, 787.2, 787.3, 787.4, 787.5, 787.6, 787.7, 787.8
5.62e-05, 0.000105, 0.000192, 0.000345, 0.000604, 0.00104, 0.00174, 0.00286, 0.00461, 0.00727, 0.0112, 0.0169, 0.025, 0.0362, 0.0513, 0.0711, 0.0965, 0.128, 0.167, 0.213, 0.266, 0.326, 0.391, 0.46, 0.53, 0.6, 0.668, 0.73, 0.786, 0.833, 0.872, 0.903, 0.926, 0.943, 0.956, 0.965, 0.972, 0.979, 0.984, 0.99, 0.994, 0.997, 0.999, 0.999, 0.998, 0.996, 0.993, 0.991, 0.989, 0.989, 0.99, 0.993, 0.995, 0.998, 1.0, 1.0, 0.999, 0.997, 0.994, 0.992, 0.99, 0.989, 0.989, 0.991, 0.994, 0.997, 0.999, 1.0, 1.0, 0.998, 0.996, 0.993, 0.99, 0.989, 0.989, 0.99, 0.992, 0.995, 0.998, 0.999, 1.0, 0.999, 0.997, 0.994, 0.991, 0.989, 0.989, 0.989, 0.991, 0.993, 0.996, 0.998, 1.0, 0.999, 0.998, 0.995, 0.993, 0.99, 0.989, 0.989, 0.99, 0.992, 0.995, 0.997, 0.999, 1.0, 0.999, 0.997, 0.994, 0.991, 0.989, 0.988, 0.989, 0.991, 0.993, 0.996, 0.998, 0.999, 0.999, 0.998, 0.995, 0.992, 0.99, 0.988, 0.988, 0.989, 0.992, 0.994, 0.997, 0.999, 0.999, 0.998, 0.996, 0.994, 0.991, 0.989, 0.988, 0.988, 0.99, 0.993, 0.995, 0.998, 0.999, 0.999, 0.998, 0.995, 0.992, 0.99, 0.988, 0.988, 0.989, 0.991, 0.994, 0.996, 0.998, 0.998, 0.997, 0.994, 0.99, 0.985, 0.979, 0.973, 0.966, 0.957, 0.946, 0.93, 0.909, 0.88, 0.843, 0.798, 0.744, 0.684, 0.617, 0.548, 0.477, 0.407, 0.341, 0.28, 0.225, 0.177, 0.137, 0.103, 0.0765, 0.0554, 0.0393, 0.0273, 0.0185, 0.0123, 0.00803, 0.00512, 0.00319, 0.00195, 0.00117, 0.000682, 0.000391, 0.000219
band13
864.627349057
852.3, 852.4, 852.5, 852.6, 852.7, 852.8, 852.9, 853.0, 853.1, 853.2, 853.3, 853.4, 853.5, 853.6, 853.7, 853.8, 853.9, 854.0, 854.1, 854.2, 854.3, 854.4, 854.5, 854.6, 854.7, 854.8, 854.9, 855.0, 855.1, 855.2, 855.3, 855.4, 855.5, 855.6, 855.7, 855.8, 855.9, 856.0, 856.1, 856.2, 856.3, 856.4, 856.5, 856.6, 856.7, 856.8, 856.9, 857.0, 857.1, 857.2, 857.3, 857.4, 857.5, 857.6, 857.7, 857.8, 857.9, 858.0, 858.1, 858.2, 858.3, 858.4, 858.5, 858.6, 858.7, 858.8, 858.9, 859.0, 859.1, 859.2, 859.3, 859.4, 859.5, 859.6, 859.7, 859.8, 859.9, 860.0, 860.1, 860.2, 860.3, 860.4, 860.5, 860.6, 860.7, 860.8, 860.9, 861.0, 861.1, 861.2, 861.3, 861.4, 861.5, 861.6, 861.7, 861.8, 861.9, 862.0, 862.1, 862.2, 862.3, 862.4, 862.5, 862.6, 862.7, 862.8, 862.9, 863.0, 863.1, 863.2, 863.3, 863.4, 863.5, 863.6, 863.7, 863.8, 863.9, 864.0, 864.1, 864.2, 864.3, 864.4, 864.5, 864.6, 864.7, 864.8, 864.9, 865.0, 865.1, 865.2, 865.3, 865.4, 865.5, 865.6, 865.7, 865.8, 865.9, 866.0, 866.1, 866.2, 866.3, 866.4, 866.5, 866.6, 866.7, 866.8, 866.9, 867.0, 867.1, 867.2, 867.3, 867.4, 867.5, 867.6, 867.7, 867.8, 867.9, 868.0, 868.1, 868.2, 868.3, 868.4, 868.5, 868.6, 868.7, 868.8, 868.9, 869.0, 869.1, 869.2, 869.3, 869.4, 869.5, 869.6, 869.7, 869.8, 869.9, 870.0, 870.1, 870.2, 870.3, 870.4, 870.5, 870.6, 870.7, 870.8, 870.9, 871.0, 871.1, 871.2, 871.3, 871.4, 871.5, 871.6, 871.7, 871.8, 871.9, 872.0, 872.1, 872.2, 872.3, 872.4, 872.5, 872.6, 872.7, 872.8, 872.9, 873.0, 873.1, 873.2, 873.3, 873.4, 873.5, 873.6, 873.7, 873.8, 873.9, 874.0, 874.1, 874.2, 874.3, 874.4, 874.5, 874.6, 874.7, 874.8, 874.9, 875.0, 875.1, 875.2, 875.3, 875.4, 875.5, 875.6, 875.7, 875.8, 875.9, 876.0, 876.1, 876.2, 876.3, 876.4, 876.5, 876.6, 876.7, 876.8
7.01e-05, 0.000131, 0.000238, 0.000425, 0.000742, 0.00127, 0.00212, 0.00347, 0.00555, 0.00869, 0.0133, 0.02, 0.0294, 0.0422, 0.0594, 0.0818, 0.11, 0.146, 0.188, 0.238, 0.295, 0.358, 0.425, 0.496, 0.567, 0.637, 0.703, 0.762, 0.814, 0.857, 0.891, 0.918, 0.937, 0.951, 0.961, 0.969, 0.975, 0.981, 0.987, 0.992, 0.996, 0.998, 0.999, 0.999, 0.997, 0.994, 0.991, 0.989, 0.988, 0.989, 0.991, 0.994, 0.996, 0.999, 1.0, 1.0, 0.998, 0.995, 0.992, 0.99, 0.988, 0.988, 0.989, 0.992, 0.995, 0.998, 0.999, 1.0, 0.999, 0.997, 0.994, 0.991, 0.989, 0.988, 0.988, 0.99, 0.993, 0.996, 0.998, 1.0, 1.0, 0.998, 0.995, 0.992, 0.99, 0.988, 0.988, 0.989, 0.991, 0.994, 0.997, 0.999, 1.0, 0.999, 0.997, 0.994, 0.991, 0.989, 0.988, 0.988, 0.99, 0.993, 0.996, 0.998, 1.0, 1.0, 0.998, 0.995, 0.992, 0.99, 0.988, 0.988, 0.989, 0.991, 0.994, 0.997, 0.999, 1.0, 0.999, 0.997, 0.994, 0.991, 0.989, 0.988, 0.988, 0.99, 0.992, 0.995, 0.998, 0.999, 0.999, 0.998, 0.996, 0.993, 0.99, 0.988, 0.987, 0.988, 0.991, 0.994, 0.996, 0.999, 0.999, 0.999, 0.997, 0.994, 0.991, 0.989, 0.987, 0.988, 0.989, 0.992, 0.995, 0.997, 0.999, 0.999, 0.998, 0.996, 0.993, 0.99, 0.988, 0.987, 0.988, 0.99, 0.993, 0.996, 0.998, 0.999, 0.999, 0.997, 0.994, 0.991, 0.989, 0.987, 0.987, 0.989, 0.991, 0.994, 0.997, 0.999, 0.999, 0.998, 0.996, 0.993, 0.99, 0.988, 0.987, 0.988, 0.99, 0.993, 0.996, 0.998, 0.999, 0.999, 0.997, 0.994, 0.991, 0.989, 0.987, 0.987, 0.988, 0.991, 0.994, 0.996, 0.998, 0.998, 0.997, 0.993, 0.989, 0.983, 0.978, 0.972, 0.965, 0.956, 0.945, 0.929, 0.907, 0.878, 0.84, 0.793, 0.738, 0.676, 0.609, 0.538, 0.467, 0.397, 0.331, 0.27, 0.216, 0.169, 0.13, 0.0975, 0.0717, 0.0516, 0.0363, 0.025, 0.0169, 0.0111, 0.0072, 0.00455, 0.00281, 0.0017, 0.00101, 0.000585, 0.000331, 0.000184
band14
884.697163697
877.4, 877.5, 877.6, 877.7, 877.8, 877.9, 878.0, 878.1, 878.2, 878.3, 878.4, 878.5, 878.6, 878.7, 878.8, 878.9, 879.0, 879.1, 879.2, 879.3, 879.4, 879.5, 879.6, 879.7, 879.8, 879.9, 880.0, 880.1, 880.2, 880.3, 880.4, 880.5, 880.6, 880.7, 880.8, 880.9, 881.0, 881.1, 881.2, 881.3, 881.4, 881.5, 881.6, 881.7, 881.8, 881.9, 882.0, 882.1, 882.2, 882.3, 882.4, 882.5, 882.6, 882.7, 882.8, 882.9, 883.0, 883.1, 883.2, 883.3, 883.4, 883.5, 883.6, 883.7, 883.8, 883.9, 884.0, 884.1, 884.2, 884.3, 884.4, 884.5, 884.6, 884.7, 884.8, 884.9, 885.0, 885.1, 885.2, 885.3, 885.4, 885.5, 885.6, 885.7, 885.8, 885.9, 886.0, 886.1, 886.2, 886.3, 886.4, 886.5, 886.6, 886.7, 886.8, 886.9, 887.0, 887.1, 887.2, 887.3, 887.4, 887.5, 887.6, 887.7, 887.8, 887.9, 888.0, 888.1, 888.2, 888.3, 888.4, 888.5, 888.6, 888.7, 888.8, 888.9, 889.0, 889.1, 889.2, 889.3, 889.4, 889.5, 889.6, 889.7, 889.8, 889.9, 890.0, 890.1, 890.2, 890.3, 890.4, 890.5, 890.6, 890.7, 890.8, 890.9, 891.0, 891.1, 891.2, 891.3, 891.4, 891.5, 891.6, 891.7, 891.8, 891.9
7.63e-05, 0.000142, 0.000258, 0.00046, 0.000801, 0.00136, 0.00228, 0.00371, 0.00593, 0.00927, 0.0142, 0.0212, 0.0311, 0.0446, 0.0625, 0.0859, 0.115, 0.152, 0.196, 0.247, 0.305, 0.369, 0.437, 0.508, 0.58, 0.649, 0.714, 0.772, 0.822, 0.864, 0.897, 0.922, 0.94, 0.953, 0.962, 0.97, 0.976, 0.982, 0.988, 0.993, 0.996, 0.999, 0.999, 0.998, 0.996, 0.993, 0.99, 0.988, 0.988, 0.989, 0.991, 0.994, 0.997, 0.999, 1.0, 0.999, 0.998, 0.995, 0.992, 0.989, 0.988, 0.988, 0.989, 0.992, 0.995, 0.998, 1.0, 1.0, 0.999, 0.996, 0.993, 0.99, 0.988, 0.988, 0.988, 0.99, 0.993, 0.996, 0.999, 1.0, 0.999, 0.998, 0.995, 0.992, 0.989, 0.988, 0.988, 0.989, 0.992, 0.995, 0.997, 0.999, 1.0, 0.999, 0.996, 0.993, 0.99, 0.988, 0.987, 0.988, 0.99, 0.993, 0.996, 0.998, 0.999, 0.998, 0.996, 0.992, 0.987, 0.981, 0.975, 0.969, 0.962, 0.952, 0.939, 0.92, 0.895, 0.862, 0.82, 0.769, 0.711, 0.646, 0.576, 0.505, 0.434, 0.366, 0.302, 0.244, 0.193, 0.15, 0.114, 0.0845, 0.0615, 0.0438, 0.0305, 0.0208, 0.0139, 0.00905, 0.00578, 0.00361, 0.00221, 0.00132, 0.000776, 0.000445, 0.000249, 0.000137
band15
899.753104609
892.4, 892.5, 892.6, 892.7, 892.8, 892.9, 893.0, 893.1, 893.2, 893.3, 893.4, 893.5, 893.6, 893.7, 893.8, 893.9, 894.0, 894.1, 894.2, 894.3, 894.4, 894.5, 894.6, 894.7, 894.8, 894.9, 895.0, 895.1, 895.2, 895.3, 895.4, 895.5, 895.6, 895.7, 895.8, 895.9, 896.0, 896.1, 896.2, 896.3, 896.4, 896.5, 896.6, 896.7, 896.8, 896.9, 897.0, 897.1, 897.2, 897.3, 897.4, 897.5, 897.6, 897.7, 897.8, 897.9, 898.0, 898.1, 898.2, 898.3, 898.4, 898.5, 898.6, 898.7, 898.8, 898.9, 899.0, 899.1, 899.2, 899.3, 899.4, 899.5, 899.6, 899.7, 899.8, 899.9, 900.0, 900.1, 900.2, 900.3, 900.4, 900.5, 900.6, 900.7, 900.8, 900.9, 901.0, 901.1, 901.2, 901.3, 901.4, 901.5, 901.6, 901.7, 901.8, 901.9, 902.0, 902.1, 902.2, 902.3, 902.4, 902.5, 902.6, 902.7, 902.8, 902.9, 903.0, 903.1, 903.2, 903.3, 903.4, 903.5, 903.6, 903.7, 903.8, 903.9, 904.0, 904.1, 904.2, 904.3, 904.4, 904.5, 904.6, 904.7, 904.8, 904.9, 905.0, 905.1, 905.2, 905.3, 905.4, 905.5, 905.6, 905.7, 905.8, 905.9, 906.0, 906.1, 906.2, 906.3, 906.4, 906.5, 906.6, 906.7, 906.8, 906.9
5.3e-05, 9.97e-05, 0.000184, 0.000331, 0.000585, 0.00101, 0.00171, 0.00282, 0.00456, 0.00722, 0.0112, 0.017, 0.0252, 0.0365, 0.0519, 0.0721, 0.0981, 0.131, 0.17, 0.218, 0.272, 0.333, 0.399, 0.469, 0.541, 0.612, 0.679, 0.741, 0.796, 0.843, 0.88, 0.909, 0.931, 0.947, 0.958, 0.966, 0.973, 0.979, 0.985, 0.99, 0.994, 0.998, 0.999, 0.999, 0.997, 0.995, 0.992, 0.989, 0.988, 0.988, 0.989, 0.992, 0.995, 0.998, 1.0, 1.0, 0.999, 0.996, 0.993, 0.99, 0.988, 0.988, 0.988, 0.99, 0.993, 0.996, 0.999, 1.0, 1.0, 0.998, 0.995, 0.992, 0.989, 0.988, 0.988, 0.989, 0.992, 0.995, 0.998, 0.999, 1.0, 0.999, 0.996, 0.993, 0.99, 0.988, 0.987, 0.988, 0.99, 0.993, 0.996, 0.998, 1.0, 0.999, 0.998, 0.995, 0.992, 0.989, 0.988, 0.987, 0.989, 0.991, 0.994, 0.997, 0.999, 0.999, 0.997, 0.994, 0.99, 0.984, 0.979, 0.973, 0.966, 0.958, 0.947, 0.932, 0.911, 0.882, 0.846, 0.8, 0.746, 0.684, 0.617, 0.546, 0.474, 0.404, 0.337, 0.276, 0.221, 0.173, 0.133, 0.1, 0.0737, 0.0531, 0.0374, 0.0258, 0.0174, 0.0115, 0.00743, 0.0047, 0.00291, 0.00176, 0.00104, 0.000605, 0.000343, 0.000191
band2
442.302283223
435.0, 435.1, 435.2, 435.3, 435.4, 435.5, 435.6, 435.7, 435.8, 435.9, 436.0, 436.1, 436.2, 436.3, 436.4, 436.5, 436.6, 436.7, 436.8, 436.9, 437.0, 437.1, 437.2, 437.3, 437.4, 437.5, 437.6, 437.7, 437.8, 437.9, 438.0, 438.1, 438.2, 438.3, 438.4, 438.5, 438.6, 438.7, 438.8, 438.9, 439.0, 439.1, 439.2, 439.3, 439.4, 439.5, 439.6, 439.7, 439.8, 439.9, 440.0, 440.1, 440.2, 440.3, 440.4, 440.5, 440.6, 440.7, 440.8, 440.9, 441.0, 441.1, 441.2, 441.3, 441.4, 441.5, 441.6, 441.7, 441.8, 441.9, 442.0, 442.1, 442.2, 442.3, 442.4, 442.5, 442.6, 442.7, 442.8, 442.9, 443.0, 443.1, 443.2, 443.3, 443.4, 443.5, 443.6, 443.7, 443.8, 443.9, 444.0, 444.1, 444.2, 444.3, 444.4, 444.5, 444.6, 444.7, 444.8, 444.9, 445.0, 445.1, 445.2, 445.3, 445.4, 445.5, 445.6, 445.7, 445.8, 445.9, 446.0, 446.1, 446.2, 446.3, 446.4, 446.5, 446.6, 446.7, 446.8, 446.9, 447.0, 447.1, 447.2, 447.3, 447.4, 447.5, 447.6, 447.7, 447.8, 447.9, 448.0, 448.1, 448.2, 448.3, 448.4, 448.5, 448.6, 448.7, 448.8, 448.9, 449.0, 449.1, 449.2, 449.3, 449.4, 449.5
7.03e-05, 0.00013, 0.000236, 0.00042, 0.00073, 0.00124, 0.00207, 0.00338, 0.0054, 0.00844, 0.0129, 0.0193, 0.0284, 0.0407, 0.0572, 0.0788, 0.106, 0.14, 0.181, 0.229, 0.284, 0.345, 0.411, 0.481, 0.551, 0.62, 0.685, 0.745, 0.798, 0.843, 0.879, 0.908, 0.929, 0.945, 0.957, 0.965, 0.972, 0.979, 0.984, 0.989, 0.993, 0.996, 0.997, 0.997, 0.995, 0.993, 0.99, 0.989, 0.988, 0.989, 0.99, 0.993, 0.995, 0.997, 0.998, 0.998, 0.997, 0.995, 0.992, 0.99, 0.989, 0.989, 0.99, 0.992, 0.995, 0.997, 0.999, 0.999, 0.998, 0.996, 0.994, 0.992, 0.99, 0.989, 0.99, 0.992, 0.994, 0.997, 0.999, 0.999, 0.999, 0.998, 0.996, 0.993, 0.991, 0.99, 0.99, 0.991, 0.994, 0.996, 0.998, 1.0, 1.0, 0.999, 0.997, 0.995, 0.992, 0.991, 0.99, 0.991, 0.993, 0.995, 0.998, 0.999, 1.0, 0.999, 0.996, 0.992, 0.987, 0.982, 0.975, 0.968, 0.959, 0.947, 0.931, 0.909, 0.88, 0.843, 0.798, 0.745, 0.685, 0.619, 0.55, 0.48, 0.411, 0.345, 0.284, 0.23, 0.182, 0.141, 0.107, 0.0794, 0.0578, 0.0412, 0.0288, 0.0197, 0.0132, 0.00863, 0.00554, 0.00348, 0.00214, 0.00129, 0.00076, 0.000439, 0.000248, 0.000137
band3
489.626577523
482.3, 482.4, 482.5, 482.6, 482.7, 482.8, 482.9, 483.0, 483.1, 483.2, 483.3, 483.4, 483.5, 483.6, 483.7, 483.8, 483.9, 484.0, 484.1, 484.2, 484.3, 484.4, 484.5, 484.6, 484.7, 484.8, 484.9, 485.0, 485.1, 485.2, 485.3, 485.4, 485.5, 485.6, 485.7, 485.8, 485.9, 486.0, 486.1, 486.2, 486.3, 486.4, 486.5, 486.6, 486.7, 486.8, 486.9, 487.0, 487.1, 487.2, 487.3, 487.4, 487.5, 487.6, 487.7, 487.8, 487.9, 488.0, 488.1, 488.2, 488.3, 488.4, 488.5, 488.6, 488.7, 488.8, 488.9, 489.0, 489.1, 489.2, 489.3, 489.4, 489.5, 489.6, 489.7, 489.8, 489.9, 490.0, 490.1, 490.2, 490.3, 490.4, 490.5, 490.6, 490.7, 490.8, 490.9, 491.0, 491.1, 491.2, 491.3, 491.4, 491.5, 491.6, 491.7, 491.8, 491.9, 492.0, 492.1, 492.2, 492.3, 492.4, 492.5, 492.6, 492.7, 492.8, 492.9, 493.0, 493.1, 493.2, 493.3, 493.4, 493.5, 493.6, 493.7, 493.8, 493.9, 494.0, 494.1, 494.2, 494.3, 494.4, 494.5, 494.6, 494.7, 494.8, 494.9, 495.0, 495.1, 495.2, 495.3, 495.4, 495.5, 495.6, 495.7, 495.8, 495.9, 496.0, 496.1, 496.2, 496.3, 496.4, 496.5, 496.6, 496.7, 496.8, 496.9
8.29e-05, 0.000151, 0.00027, 0.000473, 0.00081, 0.00136, 0.00224, 0.00361, 0.00569, 0.0088, 0.0133, 0.0198, 0.0288, 0.041, 0.0572, 0.0783, 0.105, 0.138, 0.177, 0.224, 0.277, 0.336, 0.4, 0.467, 0.536, 0.604, 0.668, 0.729, 0.782, 0.829, 0.867, 0.898, 0.922, 0.94, 0.954, 0.964, 0.972, 0.979, 0.985, 0.99, 0.994, 0.996, 0.998, 0.998, 0.997, 0.995, 0.993, 0.992, 0.991, 0.991, 0.992, 0.994, 0.996, 0.998, 0.999, 0.999, 0.998, 0.997, 0.995, 0.993, 0.991, 0.991, 0.992, 0.994, 0.996, 0.998, 0.999, 1.0, 0.999, 0.998, 0.996, 0.994, 0.992, 0.991, 0.992, 0.993, 0.995, 0.997, 0.999, 1.0, 1.0, 0.999, 0.997, 0.995, 0.993, 0.992, 0.992, 0.993, 0.994, 0.996, 0.998, 1.0, 1.0, 0.999, 0.998, 0.996, 0.994, 0.993, 0.992, 0.992, 0.993, 0.995, 0.997, 0.999, 0.999, 0.998, 0.996, 0.993, 0.989, 0.983, 0.977, 0.97, 0.96, 0.948, 0.933, 0.912, 0.884, 0.85, 0.807, 0.757, 0.7, 0.637, 0.57, 0.502, 0.434, 0.368, 0.307, 0.251, 0.201, 0.158, 0.121, 0.0915, 0.0677, 0.049, 0.0348, 0.0242, 0.0165, 0.011, 0.00721, 0.00462, 0.0029, 0.00179, 0.00108, 0.000636, 0.000368, 0.000209, 0.000116
band4
509.564329959
502.2, 502.3, 502.4, 502.5, 502.6, 502.7, 502.8, 502.9, 503.0, 503.1, 503.2, 503.3, 503.4, 503.5, 503.6, 503.7, 503.8, 503.9, 504.0, 504.1, 504.2, 504.3, 504.4, 504.5, 504.6, 504.7, 504.8, 504.9, 505.0, 505.1, 505.2, 505.3, 505.4, 505.5, 505.6, 505.7, 505.8, 505.9, 506.0, 506.1, 506.2, 506.3, 506.4, 506.5, 506.6, 506.7, 506.8, 506.9, 507.0, 507.1, 507.2, 507.3, 507.4, 507.5, 507.6, 507.7, 507.8, 507.9, 508.0, 508.1, 508.2, 508.3, 508.4, 508.5, 508.6, 508.7, 508.8, 508.9, 509.0, 509.1, 509.2, 509.3, 509.4, 509.5, 509.6, 509.7, 509.8, 509.9, 510.0, 510.1, 510.2, 510.3, 510.4, 510.5, 510.6, 510.7, 510.8, 510.9, 511.0, 511.1, 511.2, 511.3, 511.4, 511.5, 511.6, 511.7, 511.8, 511.9, 512.0, 512.1, 512.2, 512.3, 512.4, 512.5, 512.6, 512.7, 512.8, 512.9, 513.0, 513.1, 513.2, 513.3, 513.4, 513.5, 513.6, 513.7, 513.8, 513.9, 514.0, 514.1, 514.2, 514.3, 514.4, 514.5, 514.6, 514.7, 514.8, 514.9, 515.0, 515.1, 515.2, 515.3, 515.4, 515.5, 515.6, 515.7, 515.8, 515.9, 516.0, 516.1, 516.2, 516.3, 516.4, 516.5, 516.6, 516.7, 516.8
7.05e-05, 0.000129, 0.000231, 0.000406, 0.000698, 0.00118, 0.00194, 0.00314, 0.00498, 0.00774, 0.0118, 0.0176, 0.0257, 0.0368, 0.0516, 0.0709, 0.0955, 0.126, 0.163, 0.207, 0.258, 0.315, 0.377, 0.443, 0.511, 0.579, 0.645, 0.707, 0.763, 0.812, 0.853, 0.887, 0.914, 0.934, 0.949, 0.961, 0.97, 0.977, 0.983, 0.988, 0.993, 0.996, 0.998, 0.998, 0.998, 0.996, 0.995, 0.993, 0.992, 0.992, 0.992, 0.994, 0.996, 0.998, 0.999, 1.0, 0.999, 0.998, 0.996, 0.994, 0.992, 0.992, 0.992, 0.993, 0.995, 0.997, 0.999, 1.0, 1.0, 0.999, 0.997, 0.995, 0.993, 0.992, 0.992, 0.993, 0.994, 0.996, 0.998, 1.0, 1.0, 0.999, 0.998, 0.996, 0.994, 0.993, 0.992, 0.992, 0.994, 0.996, 0.998, 0.999, 1.0, 1.0, 0.999, 0.997, 0.995, 0.993, 0.992, 0.992, 0.993, 0.995, 0.997, 0.998, 0.999, 0.999, 0.997, 0.994, 0.99, 0.985, 0.979, 0.973, 0.964, 0.953, 0.939, 0.92, 0.895, 0.863, 0.824, 0.777, 0.723, 0.662, 0.597, 0.53, 0.462, 0.395, 0.332, 0.273, 0.221, 0.175, 0.136, 0.104, 0.0774, 0.0567, 0.0406, 0.0286, 0.0197, 0.0133, 0.00878, 0.00569, 0.00361, 0.00225, 0.00137, 0.000819, 0.000479, 0.000275, 0.000154
band5
559.440262161
552.1, 552.2, 552.3, 552.4, 552.5, 552.6, 552.7, 552.8, 552.9, 553.0, 553.1, 553.2, 553.3, 553.4, 553.5, 553.6, 553.7, 553.8, 553.9, 554.0, 554.1, 554.2, 554.3, 554.4, 554.5, 554.6, 554.7, 554.8, 554.9, 555.0, 555.1, 555.2, 555.3, 555.4, 555.5, 555.6, 555.7, 555.8, 555.9, 556.0, 556.1, 556.2, 556.3, 556.4, 556.5, 556.6, 556.7, 556.8, 556.9, 557.0, 557.1, 557.2, 557.3, 557.4, 557.5, 557.6, 557.7, 557.8, 557.9, 558.0, 558.1, 558.2, 558.3, 558.4, 558.5, 558.6, 558.7, 558.8, 558.9, 559.0, 559.1, 559.2, 559.3, 559.4, 559.5, 559.6, 559.7, 559.8, 559.9, 560.0, 560.1, 560.2, 560.3, 560.4, 560.5, 560.6, 560.7, 560.8, 560.9, 561.0, 561.1, 561.2, 561.3, 561.4, 561.5, 561.6, 561.7, 561.8, 561.9, 562.0, 562.1, 562.2, 562.3, 562.4, 562.5, 562.6, 562.7, 562.8, 562.9, 563.0, 563.1, 563.2, 563.3, 563.4, 563.5, 563.6, 563.7, 563.8, 563.9, 564.0, 564.1, 564.2, 564.3, 564.4, 564.5, 564.6, 564.7, 564.8, 564.9, 565.0, 565.1, 565.2, 565.3, 565.4, 565.5, 565.6, 565.7, 565.8, 565.9, 566.0, 566.1, 566.2, 566.3, 566.4, 566.5, 566.6, 566.7
8.71e-05, 0.000158, 0.000281, 0.000489, 0.000834, 0.00139, 0.00228, 0.00366, 0.00576, 0.00888, 0.0134, 0.0198, 0.0288, 0.0409, 0.057, 0.0778, 0.104, 0.137, 0.176, 0.221, 0.274, 0.332, 0.395, 0.462, 0.53, 0.597, 0.662, 0.722, 0.776, 0.824, 0.863, 0.895, 0.92, 0.939, 0.953, 0.964, 0.972, 0.979, 0.985, 0.99, 0.994, 0.997, 0.999, 0.999, 0.998, 0.997, 0.995, 0.993, 0.992, 0.992, 0.993, 0.995, 0.997, 0.999, 1.0, 1.0, 0.999, 0.998, 0.996, 0.994, 0.993, 0.992, 0.993, 0.994, 0.996, 0.998, 0.999, 1.0, 1.0, 0.998, 0.997, 0.995, 0.993, 0.992, 0.992, 0.993, 0.995, 0.997, 0.999, 1.0, 1.0, 0.999, 0.997, 0.996, 0.994, 0.992, 0.992, 0.993, 0.994, 0.996, 0.998, 0.999, 1.0, 0.999, 0.998, 0.996, 0.994, 0.993, 0.992, 0.992, 0.993, 0.995, 0.997, 0.998, 0.999, 0.998, 0.996, 0.993, 0.989, 0.984, 0.978, 0.971, 0.962, 0.95, 0.935, 0.915, 0.889, 0.856, 0.815, 0.767, 0.711, 0.65, 0.585, 0.517, 0.449, 0.383, 0.321, 0.263, 0.212, 0.168, 0.13, 0.0987, 0.0734, 0.0536, 0.0383, 0.0269, 0.0184, 0.0124, 0.00819, 0.00529, 0.00335, 0.00208, 0.00126, 0.000753, 0.00044, 0.000252, 0.000141
band6
619.349162711
612.0, 612.1, 612.2, 612.3, 612.4, 612.5, 612.6, 612.7, 612.8, 612.9, 613.0, 613.1, 613.2, 613.3, 613.4, 613.5, 613.6, 613.7, 613.8, 613.9, 614.0, 614.1, 614.2, 614.3, 614.4, 614.5, 614.6, 614.7, 614.8, 614.9, 615.0, 615.1, 615.2, 615.3, 615.4, 615.5, 615.6, 615.7, 615.8, 615.9, 616.0, 616.1, 616.2, 616.3, 616.4, 616.5, 616.6, 616.7, 616.8, 616.9, 617.0, 617.1, 617.2, 617.3, 617.4, 617.5, 617.6, 617.7, 617.8, 617.9, 618.0, 618.1, 618.2, 618.3, 618.4, 618.5, 618.6, 618.7, 618.8, 618.9, 619.0, 619.1, 619.2, 619.3, 619.4, 619.5, 619.6, 619.7, 619.8, 619.9, 620.0, 620.1, 620.2, 620.3, 620.4, 620.5, 620.6, 620.7, 620.8, 620.9, 621.0, 621.1, 621.2, 621.3, 621.4, 621.5, 621.6, 621.7, 621.8, 621.9, 622.0, 622.1, 622.2, 622.3, 622.4, 622.5, 622.6, 622.7, 622.8, 622.9, 623.0, 623.1, 623.2, 623.3, 623.4, 623.5, 623.6, 623.7, 623.8, 623.9, 624.0, 624.1, 624.2, 624.3, 624.4, 624.5, 624.6, 624.7, 624.8, 624.9, 625.0, 625.1, 625.2, 625.3, 625.4, 625.5, 625.6, 625.7, 625.8, 625.9, 626.0, 626.1, 626.2, 626.3, 626.4, 626.5, 626.6
7.8e-05, 0.000142, 0.000255, 0.000446, 0.000766, 0.00129, 0.00212, 0.00342, 0.00541, 0.00838, 0.0127, 0.0189, 0.0276, 0.0393, 0.055, 0.0754, 0.101, 0.133, 0.172, 0.218, 0.27, 0.328, 0.391, 0.458, 0.527, 0.595, 0.66, 0.721, 0.776, 0.823, 0.863, 0.895, 0.92, 0.939, 0.953, 0.964, 0.972, 0.979, 0.985, 0.99, 0.994, 0.997, 0.999, 0.999, 0.998, 0.997, 0.995, 0.993, 0.992, 0.992, 0.993, 0.995, 0.997, 0.999, 1.0, 1.0, 0.999, 0.998, 0.996, 0.994, 0.992, 0.992, 0.992, 0.993, 0.995, 0.997, 0.999, 1.0, 1.0, 0.998, 0.996, 0.994, 0.993, 0.991, 0.991, 0.992, 0.994, 0.996, 0.998, 0.999, 1.0, 0.999, 0.997, 0.995, 0.993, 0.992, 0.991, 0.992, 0.993, 0.995, 0.997, 0.999, 1.0, 0.999, 0.998, 0.996, 0.994, 0.992, 0.991, 0.991, 0.992, 0.994, 0.996, 0.997, 0.998, 0.998, 0.996, 0.993, 0.989, 0.984, 0.978, 0.971, 0.963, 0.952, 0.938, 0.92, 0.895, 0.863, 0.823, 0.776, 0.721, 0.66, 0.595, 0.527, 0.458, 0.391, 0.328, 0.27, 0.217, 0.172, 0.133, 0.101, 0.0752, 0.0549, 0.0392, 0.0275, 0.0188, 0.0127, 0.00833, 0.00537, 0.0034, 0.0021, 0.00128, 0.000758, 0.000441, 0.000252, 0.000141
band7
664.322430724
657.0, 657.1, 657.2, 657.3, 657.4, 657.5, 657.6, 657.7, 657.8, 657.9, 658.0, 658.1, 658.2, 658.3, 658.4, 658.5, 658.6, 658.7, 658.8, 658.9, 659.0, 659.1, 659.2, 659.3, 659.4, 659.5, 659.6, 659.7, 659.8, 659.9, 660.0, 660.1, 660.2, 660.3, 660.4, 660.5, 660.6, 660.7, 660.8, 660.9, 661.0, 661.1, 661.2, 661.3, 661.4, 661.5, 661.6, 661.7, 661.8, 661.9, 662.0, 662.1, 662.2, 662.3, 662.4, 662.5, 662.6, 662.7, 662.8, 662.9, 663.0, 663.1, 663.2, 663.3, 663.4, 663.5, 663.6, 663.7, 663.8, 663.9, 664.0, 664.1, 664.2, 664.3, 664.4, 664.5, 664.6, 664.7, 664.8, 664.9, 665.0, 665.1, 665.2, 665.3, 665.4, 665.5, 665.6, 665.7, 665.8, 665.9, 666.0, 666.1, 666.2, 666.3, 666.4, 666.5, 666.6, 666.7, 666.8, 666.9, 667.0, 667.1, 667.2, 667.3, 667.4, 667.5, 667.6, 667.7, 667.8, 667.9, 668.0, 668.1, 668.2, 668.3, 668.4, 668.5, 668.6, 668.7, 668.8, 668.9, 669.0, 669.1, 669.2, 669.3, 669.4, 669.5, 669.6, 669.7, 669.8, 669.9, 670.0, 670.1, 670.2, 670.3, 670.4, 670.5, 670.6, 670.7, 670.8, 670.9, 671.0, 671.1, 671.2, 671.3, 671.4, 671.5, 671.6
8.46e-05, 0.000155, 0.000277, 0.000485, 0.000833, 0.0014, 0.00231, 0.00372, 0.00588, 0.0091, 0.0138, 0.0205, 0.0298, 0.0424, 0.0592, 0.081, 0.108, 0.142, 0.183, 0.231, 0.285, 0.345, 0.41, 0.479, 0.548, 0.616, 0.681, 0.74, 0.793, 0.839, 0.876, 0.905, 0.928, 0.945, 0.957, 0.967, 0.974, 0.981, 0.987, 0.991, 0.995, 0.998, 0.999, 0.999, 0.998, 0.996, 0.994, 0.992, 0.991, 0.991, 0.993, 0.995, 0.997, 0.999, 1.0, 1.0, 0.999, 0.997, 0.995, 0.993, 0.991, 0.991, 0.992, 0.994, 0.996, 0.998, 0.999, 1.0, 0.999, 0.998, 0.996, 0.993, 0.992, 0.991, 0.991, 0.992, 0.994, 0.997, 0.999, 1.0, 1.0, 0.998, 0.996, 0.994, 0.992, 0.991, 0.99, 0.991, 0.993, 0.995, 0.997, 0.999, 1.0, 0.999, 0.997, 0.995, 0.993, 0.991, 0.99, 0.991, 0.992, 0.994, 0.996, 0.998, 0.998, 0.998, 0.996, 0.992, 0.988, 0.983, 0.977, 0.97, 0.961, 0.95, 0.936, 0.916, 0.89, 0.857, 0.815, 0.766, 0.709, 0.647, 0.58, 0.511, 0.442, 0.375, 0.312, 0.255, 0.204, 0.16, 0.123, 0.0927, 0.0684, 0.0495, 0.035, 0.0243, 0.0165, 0.011, 0.00716, 0.00457, 0.00286, 0.00175, 0.00105, 0.000617, 0.000355, 0.0002, 0.00011
band8
680.571670334
674.5, 674.6, 674.7, 674.8, 674.9, 675.0, 675.1, 675.2, 675.3, 675.4, 675.5, 675.6, 675.7, 675.8, 675.9, 676.0, 676.1, 676.2, 676.3, 676.4, 676.5, 676.6, 676.7, 676.8, 676.9, 677.0, 677.1, 677.2, 677.3, 677.4, 677.5, 677.6, 677.7, 677.8, 677.9, 678.0, 678.1, 678.2, 678.3, 678.4, 678.5, 678.6, 678.7, 678.8, 678.9, 679.0, 679.1, 679.2, 679.3, 679.4, 679.5, 679.6, 679.7, 679.8, 679.9, 680.0, 680.1, 680.2, 680.3, 680.4, 680.5, 680.6, 680.7, 680.8, 680.9, 681.0, 681.1, 681.2, 681.3, 681.4, 681.5, 681.6, 681.7, 681.8, 681.9, 682.0, 682.1, 682.2, 682.3, 682.4, 682.5, 682.6, 682.7, 682.8, 682.9, 683.0, 683.1, 683.2, 683.3, 683.4, 683.5, 683.6, 683.7, 683.8, 683.9, 684.0, 684.1, 684.2, 684.3, 684.4, 684.5, 684.6, 684.7, 684.8, 684.9, 685.0, 685.1, 685.2, 685.3, 685.4, 685.5, 685.6, 685.7, 685.8, 685.9, 686.0, 686.1, 686.2, 686.3, 686.4, 686.5, 686.6
8.22e-05, 0.000151, 0.00027, 0.000475, 0.000817, 0.00138, 0.00227, 0.00367, 0.00581, 0.00901, 0.0137, 0.0203, 0.0296, 0.0423, 0.0591, 0.0808, 0.108, 0.142, 0.183, 0.231, 0.286, 0.346, 0.412, 0.48, 0.55, 0.618, 0.683, 0.743, 0.795, 0.841, 0.878, 0.907, 0.929, 0.946, 0.958, 0.967, 0.975, 0.981, 0.987, 0.991, 0.995, 0.998, 0.999, 0.999, 0.998, 0.996, 0.993, 0.992, 0.991, 0.991, 0.992, 0.995, 0.997, 0.999, 1.0, 1.0, 0.999, 0.997, 0.994, 0.992, 0.991, 0.991, 0.991, 0.993, 0.996, 0.998, 0.999, 1.0, 0.999, 0.998, 0.995, 0.993, 0.991, 0.99, 0.991, 0.992, 0.994, 0.996, 0.998, 0.999, 0.998, 0.996, 0.993, 0.988, 0.983, 0.977, 0.97, 0.962, 0.951, 0.937, 0.917, 0.891, 0.858, 0.817, 0.767, 0.71, 0.647, 0.58, 0.511, 0.442, 0.375, 0.312, 0.254, 0.203, 0.159, 0.122, 0.0922, 0.0679, 0.049, 0.0347, 0.024, 0.0163, 0.0108, 0.00704, 0.00449, 0.0028, 0.00171, 0.00102, 0.0006, 0.000344, 0.000194, 0.000107
band9
708.080139841
700.7, 700.8, 700.9, 701.0, 701.1, 701.2, 701.3, 701.4, 701.5, 701.6, 701.7, 701.8, 701.9, 702.0, 702.1, 702.2, 702.3, 702.4, 702.5, 702.6, 702.7, 702.8, 702.9, 703.0, 703.1, 703.2, 703.3, 703.4, 703.5, 703.6, 703.7, 703.8, 703.9, 704.0, 704.1, 704.2, 704.3, 704.4, 704.5, 704.6, 704.7, 704.8, 704.9, 705.0, 705.1, 705.2, 705.3, 705.4, 705.5, 705.6, 705.7, 705.8, 705.9, 706.0, 706.1, 706.2, 706.3, 706.4, 706.5, 706.6, 706.7, 706.8, 706.9, 707.0, 707.1, 707.2, 707.3, 707.4, 707.5, 707.6, 707.7, 707.8, 707.9, 708.0, 708.1, 708.2, 708.3, 708.4, 708.5, 708.6, 708.7, 708.8, 708.9, 709.0, 709.1, 709.2, 709.3, 709.4, 709.5, 709.6, 709.7, 709.8, 709.9, 710.0, 710.1, 710.2, 710.3, 710.4, 710.5, 710.6, 710.7, 710.8, 710.9, 711.0, 711.1, 711.2, 711.3, 711.4, 711.5, 711.6, 711.7, 711.8, 711.9, 712.0, 712.1, 712.2, 712.3, 712.4, 712.5, 712.6, 712.7, 712.8, 712.9, 713.0, 713.1, 713.2, 713.3, 713.4, 713.5, 713.6, 713.7, 713.8, 713.9, 714.0, 714.1, 714.2, 714.3, 714.4, 714.5, 714.6, 714.7, 714.8, 714.9, 715.0, 715.1, 715.2, 715.3
5.41e-05, 0.000101, 0.000184, 0.000328, 0.000574, 0.000982, 0.00165, 0.0027, 0.00434, 0.00684, 0.0105, 0.0159, 0.0235, 0.034, 0.0482, 0.0669, 0.091, 0.121, 0.158, 0.202, 0.253, 0.31, 0.373, 0.441, 0.51, 0.58, 0.647, 0.711, 0.768, 0.817, 0.859, 0.892, 0.918, 0.937, 0.952, 0.962, 0.97, 0.977, 0.983, 0.989, 0.993, 0.997, 0.999, 0.999, 0.998, 0.997, 0.994, 0.992, 0.991, 0.99, 0.991, 0.993, 0.995, 0.998, 0.999, 1.0, 0.999, 0.998, 0.995, 0.993, 0.991, 0.99, 0.99, 0.992, 0.994, 0.996, 0.998, 1.0, 1.0, 0.999, 0.996, 0.994, 0.992, 0.99, 0.99, 0.991, 0.992, 0.995, 0.997, 0.999, 1.0, 0.999, 0.997, 0.995, 0.993, 0.991, 0.99, 0.99, 0.991, 0.993, 0.996, 0.998, 0.999, 0.999, 0.998, 0.996, 0.994, 0.991, 0.99, 0.989, 0.99, 0.992, 0.994, 0.997, 0.998, 0.998, 0.997, 0.994, 0.991, 0.986, 0.98, 0.974, 0.967, 0.958, 0.946, 0.93, 0.909, 0.88, 0.844, 0.799, 0.747, 0.687, 0.622, 0.553, 0.483, 0.415, 0.349, 0.287, 0.232, 0.184, 0.143, 0.109, 0.0809, 0.059, 0.0421, 0.0295, 0.0202, 0.0135, 0.00889, 0.00572, 0.0036, 0.00222, 0.00134, 0.000793, 0.000459, 0.00026, 0.000144
c3
band1
412.433615778
405.2, 405.3, 405.4, 405.5, 405.6, 405.7, 405.8, 405.9, 406.0, 406.1, 406.2, 406.3, 406.4, 406.5, 406.6, 406.7, 406.8, 406.9, 407.0, 407.1, 407.2, 407.3, 407.4, 407.5, 407.6, 407.7, 407.8, 407.9, 408.0, 408.1, 408.2, 408.3, 408.4, 408.5, 408.6, 408.7, 408.8, 408.9, 409.0, 409.1, 409.2, 409.3, 409.4, 409.5, 409.6, 409.7, 409.8, 409.9, 410.0, 410.1, 410.2, 410.3, 410.4, 410.5, 410.6, 410.7, 410.8, 410.9, 411.0, 411.1, 411.2, 411.3, 411.4, 411.5, 411.6, 411.7, 411.8, 411.9, 412.0, 412.1, 412.2, 412.3, 412.4, 412.5, 412.6, 412.7, 412.8, 412.9, 413.0, 413.1, 413.2, 413.3, 413.4, 413.5, 413.6, 413.7, 413.8, 413.9, 414.0, 414.1, 414.2, 414.3, 414.4, 414.5, 414.6, 414.7, 414.8, 414.9, 415.0, 415.1, 415.2, 415.3, 415.4, 415.5, 415.6, 415.7, 415.8, 415.9, 416.0, 416.1, 416.2, 416.3, 416.4, 416.5, 416.6, 416.7, 416.8, 416.9, 417.0, 417.1, 417.2, 417.3, 417.4, 417.5, 417.6, 417.7, 417.8, 417.9, 418.0, 418.1, 418.2, 418.3, 418.4, 418.5, 418.6, 418.7, 418.8, 418.9, 419.0, 419.1, 419.2, 419.3, 419.4, 419.5, 419.6
7.69e-05, 0.000144, 0.000263, 0.000471, 0.000825, 0.00141, 0.00237, 0.00388, 0.00621, 0.00974, 0.0149, 0.0224, 0.0328, 0.0471, 0.0661, 0.0907, 0.122, 0.16, 0.206, 0.259, 0.319, 0.385, 0.455, 0.527, 0.599, 0.668, 0.731, 0.787, 0.835, 0.874, 0.904, 0.926, 0.942, 0.954, 0.962, 0.969, 0.975, 0.981, 0.986, 0.991, 0.994, 0.996, 0.996, 0.994, 0.991, 0.988, 0.986, 0.985, 0.985, 0.987, 0.989, 0.993, 0.995, 0.997, 0.997, 0.996, 0.994, 0.991, 0.988, 0.986, 0.986, 0.987, 0.989, 0.992, 0.995, 0.997, 0.998, 0.998, 0.996, 0.993, 0.99, 0.988, 0.987, 0.987, 0.989, 0.992, 0.995, 0.997, 0.999, 0.999, 0.998, 0.995, 0.992, 0.99, 0.988, 0.988, 0.989, 0.991, 0.994, 0.997, 0.999, 1.0, 0.999, 0.997, 0.994, 0.992, 0.989, 0.988, 0.989, 0.991, 0.994, 0.997, 0.999, 1.0, 0.999, 0.997, 0.993, 0.988, 0.983, 0.977, 0.97, 0.963, 0.953, 0.939, 0.92, 0.894, 0.86, 0.817, 0.765, 0.706, 0.64, 0.57, 0.498, 0.427, 0.359, 0.295, 0.238, 0.188, 0.145, 0.11, 0.0813, 0.0589, 0.0417, 0.029, 0.0196, 0.013, 0.00847, 0.00539, 0.00335, 0.00204, 0.00121, 0.000706, 0.000402, 0.000224, 0.000122
band10
753.123045597
747.0, 747.1, 747.2, 747.3, 747.4, 747.5, 747.6, 747.7, 747.8, 747.9, 748.0, 748.1, 748.2, 748.3, 748.4, 748.5, 748.6, 748.7, 748.8, 748.9, 749.0, 749.1, 749.2, 749.3, 749.4, 749.5, 749.6, 749.7, 749.8, 749.9, 750.0, 750.1, 750.2, 750.3, 750.4, 750.5, 750.6, 750.7, 750.8, 750.9, 751.0, 751.1, 751.2, 751.3, 751.4, 751.5, 751.6, 751.7, 751.8, 751.9, 752.0, 752.1, 752.2, 752.3, 752.4, 752.5, 752.6, 752.7, 752.8, 752.9, 753.0, 753.1, 753.2, 753.3, 753.4, 753.5, 753.6, 753.7, 753.8, 753.9, 754.0, 754.1, 754.2, 754.3, 754.4, 754.5, 754.6, 754.7, 754.8, 754.9, 755.0, 755.1, 755.2, 755.3, 755.4, 755.5, 755.6, 755.7, 755.8, 755.9, 756.0, 756.1, 756.2, 756.3, 756.4, 756.5, 756.6, 756.7, 756.8, 756.9, 757.0, 757.1, 757.2, 757.3, 757.4, 757.5, 757.6, 757.7, 757.8, 757.9, 758.0, 758.1, 758.2, 758.3, 758.4, 758.5, 758.6, 758.7, 758.8, 758.9, 759.0
5.18e-05, 9.7e-05, 0.000178, 0.000319, 0.00056, 0.000963, 0.00162, 0.00267, 0.00431, 0.0068, 0.0105, 0.0159, 0.0236, 0.0342, 0.0485, 0.0675, 0.0919, 0.123, 0.16, 0.205, 0.256, 0.315, 0.379, 0.447, 0.517, 0.587, 0.655, 0.718, 0.775, 0.824, 0.865, 0.897, 0.922, 0.94, 0.953, 0.963, 0.971, 0.978, 0.984, 0.989, 0.993, 0.997, 0.999, 0.999, 0.998, 0.996, 0.994, 0.991, 0.99, 0.989, 0.99, 0.992, 0.995, 0.998, 0.999, 1.0, 0.999, 0.997, 0.995, 0.992, 0.99, 0.989, 0.99, 0.991, 0.994, 0.996, 0.998, 1.0, 1.0, 0.998, 0.996, 0.993, 0.991, 0.989, 0.989, 0.99, 0.992, 0.995, 0.997, 0.999, 0.999, 0.998, 0.995, 0.991, 0.986, 0.98, 0.974, 0.967, 0.958, 0.946, 0.931, 0.909, 0.881, 0.844, 0.799, 0.746, 0.685, 0.619, 0.55, 0.479, 0.41, 0.344, 0.283, 0.228, 0.18, 0.139, 0.105, 0.078, 0.0567, 0.0403, 0.028, 0.0191, 0.0127, 0.00832, 0.00532, 0.00333, 0.00204, 0.00122, 0.000719, 0.000413, 0.000232
band11
760.007913967
755.8, 755.9, 756.0, 756.1, 756.2, 756.3, 756.4, 756.5, 756.6, 756.7, 756.8, 756.9, 757.0, 757.1, 757.2, 757.3, 757.4, 757.5, 757.6, 757.7, 757.8, 757.9, 758.0, 758.1, 758.2, 758.3, 758.4, 758.5, 758.6, 758.7, 758.8, 758.9, 759.0, 759.1, 759.2, 759.3, 759.4, 759.5, 759.6, 759.7, 759.8, 759.9, 760.0, 760.1, 760.2, 760.3, 760.4, 760.5, 760.6, 760.7, 760.8, 760.9, 761.0, 761.1, 761.2, 761.3, 761.4, 761.5, 761.6, 761.7, 761.8, 761.9, 762.0, 762.1, 762.2, 762.3, 762.4, 762.5, 762.6, 762.7, 762.8, 762.9, 763.0, 763.1, 763.2, 763.3, 763.4, 763.5, 763.6, 763.7, 763.8, 763.9, 764.0, 764.1
6.5e-05, 0.000121, 0.00022, 0.000392, 0.000683, 0.00117, 0.00195, 0.00319, 0.0051, 0.008, 0.0123, 0.0184, 0.0271, 0.0391, 0.0551, 0.076, 0.103, 0.136, 0.176, 0.224, 0.278, 0.339, 0.405, 0.474, 0.545, 0.614, 0.681, 0.742, 0.796, 0.842, 0.88, 0.909, 0.931, 0.947, 0.959, 0.968, 0.975, 0.981, 0.987, 0.992, 0.996, 0.999, 1.0, 0.999, 0.997, 0.993, 0.988, 0.982, 0.976, 0.969, 0.961, 0.949, 0.934, 0.913, 0.885, 0.849, 0.804, 0.751, 0.691, 0.625, 0.556, 0.485, 0.416, 0.349, 0.287, 0.232, 0.183, 0.142, 0.108, 0.0798, 0.058, 0.0413, 0.0288, 0.0196, 0.0131, 0.00857, 0.00549, 0.00344, 0.00211, 0.00127, 0.000744, 0.000428, 0.000241, 0.000133
band12
778.160657513
768.3, 768.4, 768.5, 768.6, 768.7, 768.8, 768.9, 769.0, 769.1, 769.2, 769.3, 769.4, 769.5, 769.6, 769.7, 769.8, 769.9, 770.0, 770.1, 770.2, 770.3, 770.4, 770.5, 770.6, 770.7, 770.8, 770.9, 771.0, 771.1, 771.2, 771.3, 771.4, 771.5, 771.6, 771.7, 771.8, 771.9, 772.0, 772.1, 772.2, 772.3, 772.4, 772.5, 772.6, 772.7, 772.8, 772.9, 773.0, 773.1, 773.2, 773.3, 773.4, 773.5, 773.6, 773.7, 773.8, 773.9, 774.0, 774.1, 774.2, 774.3, 774.4, 774.5, 774.6, 774.7, 774.8, 774.9, 775.0, 775.1, 775.2, 775.3, 775.4, 775.5, 775.6, 775.7, 775.8, 775.9, 776.0, 776.1, 776.2, 776.3, 776.4, 776.5, 776.6, 776.7, 776.8, 776.9, 777.0, 777.1, 777.2, 777.3, 777.4, 777.5, 777.6, 777.7, 777.8, 777.9, 778.0, 778.1, 778.2, 778.3, 778.4, 778.5, 778.6, 778.7, 778.8, 778.9, 779.0, 779.1, 779.2, 779.3, 779.4, 779.5, 779.6, 779.7, 779.8, 779.9, 780.0, 780.1, 780.2, 780.3, 780.4, 780.5, 780.6, 780.7, 780.8, 780.9, 781.0, 781.1, 781.2, 781.3, 781.4, 781.5, 781.6, 781.7, 781.8, 781.9, 782.0, 782.1, 782.2, 782.3, 782.4, 782.5, 782.6, 782.7, 782.8, 782.9, 783.0, 783.1, 783.2, 783.3, 783.4, 783.5, 783.6, 783.7, 783.8, 783.9, 784.0, 784.1, 784.2, 784.3, 784.4, 784.5, 784.6, 784.7, 784.8, 784.9, 785.0, 785.1, 785.2, 785.3, 785.4, 785.5, 785.6, 785.7, 785.8, 785.9, 786.0, 786.1, 786.2, 786.3, 786.4, 786.5, 786.6, 786.7, 786.8, 786.9, 787.0, 787.1, 787.2, 787.3, 787.4, 787.5, 787.6, 787.7, 787.8
5.62e-05, 0.000105, 0.000192, 0.000345, 0.000604, 0.00104, 0.00174, 0.00286, 0.00461, 0.00727, 0.0112, 0.0169, 0.025, 0.0362, 0.0513, 0.0711, 0.0965, 0.128, 0.167, 0.213, 0.266, 0.326, 0.391, 0.46, 0.53, 0.6, 0.668, 0.73, 0.786, 0.833, 0.872, 0.903, 0.926, 0.943, 0.956, 0.965, 0.972, 0.979, 0.984, 0.99, 0.994, 0.997, 0.999, 0.999, 0.998, 0.996, 0.993, 0.991, 0.989, 0.989, 0.99, 0.993, 0.995, 0.998, 1.0, 1.0, 0.999, 0.997, 0.994, 0.992, 0.99, 0.989, 0.989, 0.991, 0.994, 0.997, 0.999, 1.0, 1.0, 0.998, 0.996, 0.993, 0.99, 0.989, 0.989, 0.99, 0.992, 0.995, 0.998, 0.999, 1.0, 0.999, 0.997, 0.994, 0.991, 0.989, 0.989, 0.989, 0.991, 0.993, 0.996, 0.998, 1.0, 0.999, 0.998, 0.995, 0.993, 0.99, 0.989, 0.989, 0.99, 0.992, 0.995, 0.997, 0.999, 1.0, 0.999, 0.997, 0.994, 0.991, 0.989, 0.988, 0.989, 0.991, 0.993, 0.996, 0.998, 0.999, 0.999, 0.998, 0.995, 0.992, 0.99, 0.988, 0.988, 0.989, 0.992, 0.994, 0.997, 0.999, 0.999, 0.998, 0.996, 0.994, 0.991, 0.989, 0.988, 0.988, 0.99, 0.993, 0.995, 0.998, 0.999, 0.999, 0.998, 0.995, 0.992, 0.99, 0.988, 0.988, 0.989, 0.991, 0.994, 0.996, 0.998, 0.998, 0.997, 0.994, 0.99, 0.985, 0.979, 0.973, 0.966, 0.957, 0.946, 0.93, 0.909, 0.88, 0.843, 0.798, 0.744, 0.684, 0.617, 0.548, 0.477, 0.407, 0.341, 0.28, 0.225, 0.177, 0.137, 0.103, 0.0765, 0.0554, 0.0393, 0.0273, 0.0185, 0.0123, 0.00803, 0.00512, 0.00319, 0.00195, 0.00117, 0.000682, 0.000391, 0.000219
band13
864.627349057
852.3, 852.4, 852.5, 852.6, 852.7, 852.8, 852.9, 853.0, 853.1, 853.2, 853.3, 853.4, 853.5, 853.6, 853.7, 853.8, 853.9, 854.0, 854.1, 854.2, 854.3, 854.4, 854.5, 854.6, 854.7, 854.8, 854.9, 855.0, 855.1, 855.2, 855.3, 855.4, 855.5, 855.6, 855.7, 855.8, 855.9, 856.0, 856.1, 856.2, 856.3, 856.4, 856.5, 856.6, 856.7, 856.8, 856.9, 857.0, 857.1, 857.2, 857.3, 857.4, 857.5, 857.6, 857.7, 857.8, 857.9, 858.0, 858.1, 858.2, 858.3, 858.4, 858.5, 858.6, 858.7, 858.8, 858.9, 859.0, 859.1, 859.2, 859.3, 859.4, 859.5, 859.6, 859.7, 859.8, 859.9, 860.0, 860.1, 860.2, 860.3, 860.4, 860.5, 860.6, 860.7, 860.8, 860.9, 861.0, 861.1, 861.2, 861.3, 861.4, 861.5, 861.6, 861.7, 861.8, 861.9, 862.0, 862.1, 862.2, 862.3, 862.4, 862.5, 862.6, 862.7, 862.8, 862.9, 863.0, 863.1, 863.2, 863.3, 863.4, 863.5, 863.6, 863.7, 863.8, 863.9, 864.0, 864.1, 864.2, 864.3, 864.4, 864.5, 864.6, 864.7, 864.8, 864.9, 865.0, 865.1, 865.2, 865.3, 865.4, 865.5, 865.6, 865.7, 865.8, 865.9, 866.0, 866.1, 866.2, 866.3, 866.4, 866.5, 866.6, 866.7, 866.8, 866.9, 867.0, 867.1, 867.2, 867.3, 867.4, 867.5, 867.6, 867.7, 867.8, 867.9, 868.0, 868.1, 868.2, 868.3, 868.4, 868.5, 868.6, 868.7, 868.8, 868.9, 869.0, 869.1, 869.2, 869.3, 869.4, 869.5, 869.6, 869.7, 869.8, 869.9, 870.0, 870.1, 870.2, 870.3, 870.4, 870.5, 870.6, 870.7, 870.8, 870.9, 871.0, 871.1, 871.2, 871.3, 871.4, 871.5, 871.6, 871.7, 871.8, 871.9, 872.0, 872.1, 872.2, 872.3, 872.4, 872.5, 872.6, 872.7, 872.8, 872.9, 873.0, 873.1, 873.2, 873.3, 873.4, 873.5, 873.6, 873.7, 873.8, 873.9, 874.0, 874.1, 874.2, 874.3, 874.4, 874.5, 874.6, 874.7, 874.8, 874.9, 875.0, 875.1, 875.2, 875.3, 875.4, 875.5, 875.6, 875.7, 875.8, 875.9, 876.0, 876.1, 876.2, 876.3, 876.4, 876.5, 876.6, 876.7, 876.8
7.01e-05, 0.000131, 0.000238, 0.000425, 0.000742, 0.00127, 0.00212, 0.00347, 0.00555, 0.00869, 0.0133, 0.02, 0.0294, 0.0422, 0.0594, 0.0818, 0.11, 0.146, 0.188, 0.238, 0.295, 0.358, 0.425, 0.496, 0.567, 0.637, 0.703, 0.762, 0.814, 0.857, 0.891, 0.918, 0.937, 0.951, 0.961, 0.969, 0.975, 0.981, 0.987, 0.992, 0.996, 0.998, 0.999, 0.999, 0.997, 0.994, 0.991, 0.989, 0.988, 0.989, 0.991, 0.994, 0.996, 0.999, 1.0, 1.0, 0.998, 0.995, 0.992, 0.99, 0.988, 0.988, 0.989, 0.992, 0.995, 0.998, 0.999, 1.0, 0.999, 0.997, 0.994, 0.991, 0.989, 0.988, 0.988, 0.99, 0.993, 0.996, 0.998, 1.0, 1.0, 0.998, 0.995, 0.992, 0.99, 0.988, 0.988, 0.989, 0.991, 0.994, 0.997, 0.999, 1.0, 0.999, 0.997, 0.994, 0.991, 0.989, 0.988, 0.988, 0.99, 0.993, 0.996, 0.998, 1.0, 1.0, 0.998, 0.995, 0.992, 0.99, 0.988, 0.988, 0.989, 0.991, 0.994, 0.997, 0.999, 1.0, 0.999, 0.997, 0.994, 0.991, 0.989, 0.988, 0.988, 0.99, 0.992, 0.995, 0.998, 0.999, 0.999, 0.998, 0.996, 0.993, 0.99, 0.988, 0.987, 0.988, 0.991, 0.994, 0.996, 0.999, 0.999, 0.999, 0.997, 0.994, 0.991, 0.989, 0.987, 0.988, 0.989, 0.992, 0.995, 0.997, 0.999, 0.999, 0.998, 0.996, 0.993, 0.99, 0.988, 0.987, 0.988, 0.99, 0.993, 0.996, 0.998, 0.999, 0.999, 0.997, 0.994, 0.991, 0.989, 0.987, 0.987, 0.989, 0.991, 0.994, 0.997, 0.999, 0.999, 0.998, 0.996, 0.993, 0.99, 0.988, 0.987, 0.988, 0.99, 0.993, 0.996, 0.998, 0.999, 0.999, 0.997, 0.994, 0.991, 0.989, 0.987, 0.987, 0.988, 0.991, 0.994, 0.996, 0.998, 0.998, 0.997, 0.993, 0.989, 0.983, 0.978, 0.972, 0.965, 0.956, 0.945, 0.929, 0.907, 0.878, 0.84, 0.793, 0.738, 0.676, 0.609, 0.538, 0.467, 0.397, 0.331, 0.27, 0.216, 0.169, 0.13, 0.0975, 0.0717, 0.0516, 0.0363, 0.025, 0.0169, 0.0111, 0.0072, 0.00455, 0.00281, 0.0017, 0.00101, 0.000585, 0.000331, 0.000184
band14
884.697163697
877.4, 877.5, 877.6, 877.7, 877.8, 877.9, 878.0, 878.1, 878.2, 878.3, 878.4, 878.5, 878.6, 878.7, 878.8, 878.9, 879.0, 879.1, 879.2, 879.3, 879.4, 879.5, 879.6, 879.7, 879.8, 879.9, 880.0, 880.1, 880.2, 880.3, 880.4, 880.5, 880.6, 880.7, 880.8, 880.9, 881.0, 881.1, 881.2, 881.3, 881.4, 881.5, 881.6, 881.7, 881.8, 881.9, 882.0, 882.1, 882.2, 882.3, 882.4, 882.5, 882.6, 882.7, 882.8, 882.9, 883.0, 883.1, 883.2, 883.3, 883.4, 883.5, 883.6, 883.7, 883.8, 883.9, 884.0, 884.1, 884.2, 884.3, 884.4, 884.5, 884.6, 884.7, 884.8, 884.9, 885.0, 885.1, 885.2, 885.3, 885.4, 885.5, 885.6, 885.7, 885.8, 885.9, 886.0, 886.1, 886.2, 886.3, 886.4, 886.5, 886.6, 886.7, 886.8, 886.9, 887.0, 887.1, 887.2, 887.3, 887.4, 887.5, 887.6, 887.7, 887.8, 887.9, 888.0, 888.1, 888.2, 888.3, 888.4, 888.5, 888.6, 888.7, 888.8, 888.9, 889.0, 889.1, 889.2, 889.3, 889.4, 889.5, 889.6, 889.7, 889.8, 889.9, 890.0, 890.1, 890.2, 890.3, 890.4, 890.5, 890.6, 890.7, 890.8, 890.9, 891.0, 891.1, 891.2, 891.3, 891.4, 891.5, 891.6, 891.7, 891.8, 891.9
7.63e-05, 0.000142, 0.000258, 0.00046, 0.000801, 0.00136, 0.00228, 0.00371, 0.00593, 0.00927, 0.0142, 0.0212, 0.0311, 0.0446, 0.0625, 0.0859, 0.115, 0.152, 0.196, 0.247, 0.305, 0.369, 0.437, 0.508, 0.58, 0.649, 0.714, 0.772, 0.822, 0.864, 0.897, 0.922, 0.94, 0.953, 0.962, 0.97, 0.976, 0.982, 0.988, 0.993, 0.996, 0.999, 0.999, 0.998, 0.996, 0.993, 0.99, 0.988, 0.988, 0.989, 0.991, 0.994, 0.997, 0.999, 1.0, 0.999, 0.998, 0.995, 0.992, 0.989, 0.988, 0.988, 0.989, 0.992, 0.995, 0.998, 1.0, 1.0, 0.999, 0.996, 0.993, 0.99, 0.988, 0.988, 0.988, 0.99, 0.993, 0.996, 0.999, 1.0, 0.999, 0.998, 0.995, 0.992, 0.989, 0.988, 0.988, 0.989, 0.992, 0.995, 0.997, 0.999, 1.0, 0.999, 0.996, 0.993, 0.99, 0.988, 0.987, 0.988, 0.99, 0.993, 0.996, 0.998, 0.999, 0.998, 0.996, 0.992, 0.987, 0.981, 0.975, 0.969, 0.962, 0.952, 0.939, 0.92, 0.895, 0.862, 0.82, 0.769, 0.711, 0.646, 0.576, 0.505, 0.434, 0.366, 0.302, 0.244, 0.193, 0.15, 0.114, 0.0845, 0.0615, 0.0438, 0.0305, 0.0208, 0.0139, 0.00905, 0.00578, 0.00361, 0.00221, 0.00132, 0.000776, 0.000445, 0.000249, 0.000137
band15
899.753104609
892.4, 892.5, 892.6, 892.7, 892.8, 892.9, 893.0, 893.1, 893.2, 893.3, 893.4, 893.5, 893.6, 893.7, 893.8, 893.9, 894.0, 894.1, 894.2, 894.3, 894.4, 894.5, 894.6, 894.7, 894.8, 894.9, 895.0, 895.1, 895.2, 895.3, 895.4, 895.5, 895.6, 895.7, 895.8, 895.9, 896.0, 896.1, 896.2, 896.3, 896.4, 896.5, 896.6, 896.7, 896.8, 896.9, 897.0, 897.1, 897.2, 897.3, 897.4, 897.5, 897.6, 897.7, 897.8, 897.9, 898.0, 898.1, 898.2, 898.3, 898.4, 898.5, 898.6, 898.7, 898.8, 898.9, 899.0, 899.1, 899.2, 899.3, 899.4, 899.5, 899.6, 899.7, 899.8, 899.9, 900.0, 900.1, 900.2, 900.3, 900.4, 900.5, 900.6, 900.7, 900.8, 900.9, 901.0, 901.1, 901.2, 901.3, 901.4, 901.5, 901.6, 901.7, 901.8, 901.9, 902.0, 902.1, 902.2, 902.3, 902.4, 902.5, 902.6, 902.7, 902.8, 902.9, 903.0, 903.1, 903.2, 903.3, 903.4, 903.5, 903.6, 903.7, 903.8, 903.9, 904.0, 904.1, 904.2, 904.3, 904.4, 904.5, 904.6, 904.7, 904.8, 904.9, 905.0, 905.1, 905.2, 905.3, 905.4, 905.5, 905.6, 905.7, 905.8, 905.9, 906.0, 906.1, 906.2, 906.3, 906.4, 906.5, 906.6, 906.7, 906.8, 906.9
5.3e-05, 9.97e-05, 0.000184, 0.000331, 0.000585, 0.00101, 0.00171, 0.00282, 0.00456, 0.00722, 0.0112, 0.017, 0.0252, 0.0365, 0.0519, 0.0721, 0.0981, 0.131, 0.17, 0.218, 0.272, 0.333, 0.399, 0.469, 0.541, 0.612, 0.679, 0.741, 0.796, 0.843, 0.88, 0.909, 0.931, 0.947, 0.958, 0.966, 0.973, 0.979, 0.985, 0.99, 0.994, 0.998, 0.999, 0.999, 0.997, 0.995, 0.992, 0.989, 0.988, 0.988, 0.989, 0.992, 0.995, 0.998, 1.0, 1.0, 0.999, 0.996, 0.993, 0.99, 0.988, 0.988, 0.988, 0.99, 0.993, 0.996, 0.999, 1.0, 1.0, 0.998, 0.995, 0.992, 0.989, 0.988, 0.988, 0.989, 0.992, 0.995, 0.998, 0.999, 1.0, 0.999, 0.996, 0.993, 0.99, 0.988, 0.987, 0.988, 0.99, 0.993, 0.996, 0.998, 1.0, 0.999, 0.998, 0.995, 0.992, 0.989, 0.988, 0.987, 0.989, 0.991, 0.994, 0.997, 0.999, 0.999, 0.997, 0.994, 0.99, 0.984, 0.979, 0.973, 0.966, 0.958, 0.947, 0.932, 0.911, 0.882, 0.846, 0.8, 0.746, 0.684, 0.617, 0.546, 0.474, 0.404, 0.337, 0.276, 0.221, 0.173, 0.133, 0.1, 0.0737, 0.0531, 0.0374, 0.0258, 0.0174, 0.0115, 0.00743, 0.0047, 0.00291, 0.00176, 0.00104, 0.000605, 0.000343, 0.000191
band2
442.302283223
435.0, 435.1, 435.2, 435.3, 435.4, 435.5, 435.6, 435.7, 435.8, 435.9, 436.0, 436.1, 436.2, 436.3, 436.4, 436.5, 436.6, 436.7, 436.8, 436.9, 437.0, 437.1, 437.2, 437.3, 437.4, 437.5, 437.6, 437.7, 437.8, 437.9, 438.0, 438.1, 438.2, 438.3, 438.4, 438.5, 438.6, 438.7, 438.8, 438.9, 439.0, 439.1, 439.2, 439.3, 439.4, 439.5, 439.6, 439.7, 439.8, 439.9, 440.0, 440.1, 440.2, 440.3, 440.4, 440.5, 440.6, 440.7, 440.8, 440.9, 441.0, 441.1, 441.2, 441.3, 441.4, 441.5, 441.6, 441.7, 441.8, 441.9, 442.0, 442.1, 442.2, 442.3, 442.4, 442.5, 442.6, 442.7, 442.8, 442.9, 443.0, 443.1, 443.2, 443.3, 443.4, 443.5, 443.6, 443.7, 443.8, 443.9, 444.0, 444.1, 444.2, 444.3, 444.4, 444.5, 444.6, 444.7, 444.8, 444.9, 445.0, 445.1, 445.2, 445.3, 445.4, 445.5, 445.6, 445.7, 445.8, 445.9, 446.0, 446.1, 446.2, 446.3, 446.4, 446.5, 446.6, 446.7, 446.8, 446.9, 447.0, 447.1, 447.2, 447.3, 447.4, 447.5, 447.6, 447.7, 447.8, 447.9, 448.0, 448.1, 448.2, 448.3, 448.4, 448.5, 448.6, 448.7, 448.8, 448.9, 449.0, 449.1, 449.2, 449.3, 449.4, 449.5
7.03e-05, 0.00013, 0.000236, 0.00042, 0.00073, 0.00124, 0.00207, 0.00338, 0.0054, 0.00844, 0.0129, 0.0193, 0.0284, 0.0407, 0.0572, 0.0788, 0.106, 0.14, 0.181, 0.229, 0.284, 0.345, 0.411, 0.481, 0.551, 0.62, 0.685, 0.745, 0.798, 0.843, 0.879, 0.908, 0.929, 0.945, 0.957, 0.965, 0.972, 0.979, 0.984, 0.989, 0.993, 0.996, 0.997, 0.997, 0.995, 0.993, 0.99, 0.989, 0.988, 0.989, 0.99, 0.993, 0.995, 0.997, 0.998, 0.998, 0.997, 0.995, 0.992, 0.99, 0.989, 0.989, 0.99, 0.992, 0.995, 0.997, 0.999, 0.999, 0.998, 0.996, 0.994, 0.992, 0.99, 0.989, 0.99, 0.992, 0.994, 0.997, 0.999, 0.999, 0.999, 0.998, 0.996, 0.993, 0.991, 0.99, 0.99, 0.991, 0.994, 0.996, 0.998, 1.0, 1.0, 0.999, 0.997, 0.995, 0.992, 0.991, 0.99, 0.991, 0.993, 0.995, 0.998, 0.999, 1.0, 0.999, 0.996, 0.992, 0.987, 0.982, 0.975, 0.968, 0.959, 0.947, 0.931, 0.909, 0.88, 0.843, 0.798, 0.745, 0.685, 0.619, 0.55, 0.48, 0.411, 0.345, 0.284, 0.23, 0.182, 0.141, 0.107, 0.0794, 0.0578, 0.0412, 0.0288, 0.0197, 0.0132, 0.00863, 0.00554, 0.00348, 0.00214, 0.00129, 0.00076, 0.000439, 0.000248, 0.000137
band3
489.626577523
482.3, 482.4, 482.5, 482.6, 482.7, 482.8, 482.9, 483.0, 483.1, 483.2, 483.3, 483.4, 483.5, 483.6, 483.7, 483.8, 483.9, 484.0, 484.1, 484.2, 484.3, 484.4, 484.5, 484.6, 484.7, 484.8, 484.9, 485.0, 485.1, 485.2, 485.3, 485.4, 485.5, 485.6, 485.7, 485.8, 485.9, 486.0, 486.1, 486.2, 486.3, 486.4, 486.5, 486.6, 486.7, 486.8, 486.9, 487.0, 487.1, 487.2, 487.3, 487.4, 487.5, 487.6, 487.7, 487.8, 487.9, 488.0, 488.1, 488.2, 488.3, 488.4, 488.5, 488.6, 488.7, 488.8, 488.9, 489.0, 489.1, 489.2, 489.3, 489.4, 489.5, 489.6, 489.7, 489.8, 489.9, 490.0, 490.1, 490.2, 490.3, 490.4, 490.5, 490.6, 490.7, 490.8, 490.9, 491.0, 491.1, 491.2, 491.3, 491.4, 491.5, 491.6, 491.7, 491.8, 491.9, 492.0, 492.1, 492.2, 492.3, 492.4, 492.5, 492.6, 492.7, 492.8, 492.9, 493.0, 493.1, 493.2, 493.3, 493.4, 493.5, 493.6, 493.7, 493.8, 493.9, 494.0, 494.1, 494.2, 494.3, 494.4, 494.5, 494.6, 494.7, 494.8, 494.9, 495.0, 495.1, 495.2, 495.3, 495.4, 495.5, 495.6, 495.7, 495.8, 495.9, 496.0, 496.1, 496.2, 496.3, 496.4, 496.5, 496.6, 496.7, 496.8, 496.9
8.29e-05, 0.000151, 0.00027, 0.000473, 0.00081, 0.00136, 0.00224, 0.00361, 0.00569, 0.0088, 0.0133, 0.0198, 0.0288, 0.041, 0.0572, 0.0783, 0.105, 0.138, 0.177, 0.224, 0.277, 0.336, 0.4, 0.467, 0.536, 0.604, 0.668, 0.729, 0.782, 0.829, 0.867, 0.898, 0.922, 0.94, 0.954, 0.964, 0.972, 0.979, 0.985, 0.99, 0.994, 0.996, 0.998, 0.998, 0.997, 0.995, 0.993, 0.992, 0.991, 0.991, 0.992, 0.994, 0.996, 0.998, 0.999, 0.999, 0.998, 0.997, 0.995, 0.993, 0.991, 0.991, 0.992, 0.994, 0.996, 0.998, 0.999, 1.0, 0.999, 0.998, 0.996, 0.994, 0.992, 0.991, 0.992, 0.993, 0.995, 0.997, 0.999, 1.0, 1.0, 0.999, 0.997, 0.995, 0.993, 0.992, 0.992, 0.993, 0.994, 0.996, 0.998, 1.0, 1.0, 0.999, 0.998, 0.996, 0.994, 0.993, 0.992, 0.992, 0.993, 0.995, 0.997, 0.999, 0.999, 0.998, 0.996, 0.993, 0.989, 0.983, 0.977, 0.97, 0.96, 0.948, 0.933, 0.912, 0.884, 0.85, 0.807, 0.757, 0.7, 0.637, 0.57, 0.502, 0.434, 0.368, 0.307, 0.251, 0.201, 0.158, 0.121, 0.0915, 0.0677, 0.049, 0.0348, 0.0242, 0.0165, 0.011, 0.00721, 0.00462, 0.0029, 0.00179, 0.00108, 0.000636, 0.000368, 0.000209, 0.000116
band4
509.564329959
502.2, 502.3, 502.4, 502.5, 502.6, 502.7, 502.8, 502.9, 503.0, 503.1, 503.2, 503.3, 503.4, 503.5, 503.6, 503.7, 503.8, 503.9, 504.0, 504.1, 504.2, 504.3, 504.4, 504.5, 504.6, 504.7, 504.8, 504.9, 505.0, 505.1, 505.2, 505.3, 505.4, 505.5, 505.6, 505.7, 505.8, 505.9, 506.0, 506.1, 506.2, 506.3, 506.4, 506.5, 506.6, 506.7, 506.8, 506.9, 507.0, 507.1, 507.2, 507.3, 507.4, 507.5, 507.6, 507.7, 507.8, 507.9, 508.0, 508.1, 508.2, 508.3, 508.4, 508.5, 508.6, 508.7, 508.8, 508.9, 509.0, 509.1, 509.2, 509.3, 509.4, 509.5, 509.6, 509.7, 509.8, 509.9, 510.0, 510.1, 510.2, 510.3, 510.4, 510.5, 510.6, 510.7, 510.8, 510.9, 511.0, 511.1, 511.2, 511.3, 511.4, 511.5, 511.6, 511.7, 511.8, 511.9, 512.0, 512.1, 512.2, 512.3, 512.4, 512.5, 512.6, 512.7, 512.8, 512.9, 513.0, 513.1, 513.2, 513.3, 513.4, 513.5, 513.6, 513.7, 513.8, 513.9, 514.0, 514.1, 514.2, 514.3, 514.4, 514.5, 514.6, 514.7, 514.8, 514.9, 515.0, 515.1, 515.2, 515.3, 515.4, 515.5, 515.6, 515.7, 515.8, 515.9, 516.0, 516.1, 516.2, 516.3, 516.4, 516.5, 516.6, 516.7, 516.8
7.05e-05, 0.000129, 0.000231, 0.000406, 0.000698, 0.00118, 0.00194, 0.00314, 0.00498, 0.00774, 0.0118, 0.0176, 0.0257, 0.0368, 0.0516, 0.0709, 0.0955, 0.126, 0.163, 0.207, 0.258, 0.315, 0.377, 0.443, 0.511, 0.579, 0.645, 0.707, 0.763, 0.812, 0.853, 0.887, 0.914, 0.934, 0.949, 0.961, 0.97, 0.977, 0.983, 0.988, 0.993, 0.996, 0.998, 0.998, 0.998, 0.996, 0.995, 0.993, 0.992, 0.992, 0.992, 0.994, 0.996, 0.998, 0.999, 1.0, 0.999, 0.998, 0.996, 0.994, 0.992, 0.992, 0.992, 0.993, 0.995, 0.997, 0.999, 1.0, 1.0, 0.999, 0.997, 0.995, 0.993, 0.992, 0.992, 0.993, 0.994, 0.996, 0.998, 1.0, 1.0, 0.999, 0.998, 0.996, 0.994, 0.993, 0.992, 0.992, 0.994, 0.996, 0.998, 0.999, 1.0, 1.0, 0.999, 0.997, 0.995, 0.993, 0.992, 0.992, 0.993, 0.995, 0.997, 0.998, 0.999, 0.999, 0.997, 0.994, 0.99, 0.985, 0.979, 0.973, 0.964, 0.953, 0.939, 0.92, 0.895, 0.863, 0.824, 0.777, 0.723, 0.662, 0.597, 0.53, 0.462, 0.395, 0.332, 0.273, 0.221, 0.175, 0.136, 0.104, 0.0774, 0.0567, 0.0406, 0.0286, 0.0197, 0.0133, 0.00878, 0.00569, 0.00361, 0.00225, 0.00137, 0.000819, 0.000479, 0.000275, 0.000154
band5
559.440262161
552.1, 552.2, 552.3, 552.4, 552.5, 552.6, 552.7, 552.8, 552.9, 553.0, 553.1, 553.2, 553.3, 553.4, 553.5, 553.6, 553.7, 553.8, 553.9, 554.0, 554.1, 554.2, 554.3, 554.4, 554.5, 554.6, 554.7, 554.8, 554.9, 555.0, 555.1, 555.2, 555.3, 555.4, 555.5, 555.6, 555.7, 555.8, 555.9, 556.0, 556.1, 556.2, 556.3, 556.4, 556.5, 556.6, 556.7, 556.8, 556.9, 557.0, 557.1, 557.2, 557.3, 557.4, 557.5, 557.6, 557.7, 557.8, 557.9, 558.0, 558.1, 558.2, 558.3, 558.4, 558.5, 558.6, 558.7, 558.8, 558.9, 559.0, 559.1, 559.2, 559.3, 559.4, 559.5, 559.6, 559.7, 559.8, 559.9, 560.0, 560.1, 560.2, 560.3, 560.4, 560.5, 560.6, 560.7, 560.8, 560.9, 561.0, 561.1, 561.2, 561.3, 561.4, 561.5, 561.6, 561.7, 561.8, 561.9, 562.0, 562.1, 562.2, 562.3, 562.4, 562.5, 562.6, 562.7, 562.8, 562.9, 563.0, 563.1, 563.2, 563.3, 563.4, 563.5, 563.6, 563.7, 563.8, 563.9, 564.0, 564.1, 564.2, 564.3, 564.4, 564.5, 564.6, 564.7, 564.8, 564.9, 565.0, 565.1, 565.2, 565.3, 565.4, 565.5, 565.6, 565.7, 565.8, 565.9, 566.0, 566.1, 566.2, 566.3, 566.4, 566.5, 566.6, 566.7
8.71e-05, 0.000158, 0.000281, 0.000489, 0.000834, 0.00139, 0.00228, 0.00366, 0.00576, 0.00888, 0.0134, 0.0198, 0.0288, 0.0409, 0.057, 0.0778, 0.104, 0.137, 0.176, 0.221, 0.274, 0.332, 0.395, 0.462, 0.53, 0.597, 0.662, 0.722, 0.776, 0.824, 0.863, 0.895, 0.92, 0.939, 0.953, 0.964, 0.972, 0.979, 0.985, 0.99, 0.994, 0.997, 0.999, 0.999, 0.998, 0.997, 0.995, 0.993, 0.992, 0.992, 0.993, 0.995, 0.997, 0.999, 1.0, 1.0, 0.999, 0.998, 0.996, 0.994, 0.993, 0.992, 0.993, 0.994, 0.996, 0.998, 0.999, 1.0, 1.0, 0.998, 0.997, 0.995, 0.993, 0.992, 0.992, 0.993, 0.995, 0.997, 0.999, 1.0, 1.0, 0.999, 0.997, 0.996, 0.994, 0.992, 0.992, 0.993, 0.994, 0.996, 0.998, 0.999, 1.0, 0.999, 0.998, 0.996, 0.994, 0.993, 0.992, 0.992, 0.993, 0.995, 0.997, 0.998, 0.999, 0.998, 0.996, 0.993, 0.989, 0.984, 0.978, 0.971, 0.962, 0.95, 0.935, 0.915, 0.889, 0.856, 0.815, 0.767, 0.711, 0.65, 0.585, 0.517, 0.449, 0.383, 0.321, 0.263, 0.212, 0.168, 0.13, 0.0987, 0.0734, 0.0536, 0.0383, 0.0269, 0.0184, 0.0124, 0.00819, 0.00529, 0.00335, 0.00208, 0.00126, 0.000753, 0.00044, 0.000252, 0.000141
band6
619.349162711
612.0, 612.1, 612.2, 612.3, 612.4, 612.5, 612.6, 612.7, 612.8, 612.9, 613.0, 613.1, 613.2, 613.3, 613.4, 613.5, 613.6, 613.7, 613.8, 613.9, 614.0, 614.1, 614.2, 614.3, 614.4, 614.5, 614.6, 614.7, 614.8, 614.9, 615.0, 615.1, 615.2, 615.3, 615.4, 615.5, 615.6, 615.7, 615.8, 615.9, 616.0, 616.1, 616.2, 616.3, 616.4, 616.5, 616.6, 616.7, 616.8, 616.9, 617.0, 617.1, 617.2, 617.3, 617.4, 617.5, 617.6, 617.7, 617.8, 617.9, 618.0, 618.1, 618.2, 618.3, 618.4, 618.5, 618.6, 618.7, 618.8, 618.9, 619.0, 619.1, 619.2, 619.3, 619.4, 619.5, 619.6, 619.7, 619.8, 619.9, 620.0, 620.1, 620.2, 620.3, 620.4, 620.5, 620.6, 620.7, 620.8, 620.9, 621.0, 621.1, 621.2, 621.3, 621.4, 621.5, 621.6, 621.7, 621.8, 621.9, 622.0, 622.1, 622.2, 622.3, 622.4, 622.5, 622.6, 622.7, 622.8, 622.9, 623.0, 623.1, 623.2, 623.3, 623.4, 623.5, 623.6, 623.7, 623.8, 623.9, 624.0, 624.1, 624.2, 624.3, 624.4, 624.5, 624.6, 624.7, 624.8, 624.9, 625.0, 625.1, 625.2, 625.3, 625.4, 625.5, 625.6, 625.7, 625.8, 625.9, 626.0, 626.1, 626.2, 626.3, 626.4, 626.5, 626.6
7.8e-05, 0.000142, 0.000255, 0.000446, 0.000766, 0.00129, 0.00212, 0.00342, 0.00541, 0.00838, 0.0127, 0.0189, 0.0276, 0.0393, 0.055, 0.0754, 0.101, 0.133, 0.172, 0.218, 0.27, 0.328, 0.391, 0.458, 0.527, 0.595, 0.66, 0.721, 0.776, 0.823, 0.863, 0.895, 0.92, 0.939, 0.953, 0.964, 0.972, 0.979, 0.985, 0.99, 0.994, 0.997, 0.999, 0.999, 0.998, 0.997, 0.995, 0.993, 0.992, 0.992, 0.993, 0.995, 0.997, 0.999, 1.0, 1.0, 0.999, 0.998, 0.996, 0.994, 0.992, 0.992, 0.992, 0.993, 0.995, 0.997, 0.999, 1.0, 1.0, 0.998, 0.996, 0.994, 0.993, 0.991, 0.991, 0.992, 0.994, 0.996, 0.998, 0.999, 1.0, 0.999, 0.997, 0.995, 0.993, 0.992, 0.991, 0.992, 0.993, 0.995, 0.997, 0.999, 1.0, 0.999, 0.998, 0.996, 0.994, 0.992, 0.991, 0.991, 0.992, 0.994, 0.996, 0.997, 0.998, 0.998, 0.996, 0.993, 0.989, 0.984, 0.978, 0.971, 0.963, 0.952, 0.938, 0.92, 0.895, 0.863, 0.823, 0.776, 0.721, 0.66, 0.595, 0.527, 0.458, 0.391, 0.328, 0.27, 0.217, 0.172, 0.133, 0.101, 0.0752, 0.0549, 0.0392, 0.0275, 0.0188, 0.0127, 0.00833, 0.00537, 0.0034, 0.0021, 0.00128, 0.000758, 0.000441, 0.000252, 0.000141
band7
664.322430724
657.0, 657.1, 657.2, 657.3, 657.4, 657.5, 657.6, 657.7, 657.8, 657.9, 658.0, 658.1, 658.2, 658.3, 658.4, 658.5, 658.6, 658.7, 658.8, 658.9, 659.0, 659.1, 659.2, 659.3, 659.4, 659.5, 659.6, 659.7, 659.8, 659.9, 660.0, 660.1, 660.2, 660.3, 660.4, 660.5, 660.6, 660.7, 660.8, 660.9, 661.0, 661.1, 661.2, 661.3, 661.4, 661.5, 661.6, 661.7, 661.8, 661.9, 662.0, 662.1, 662.2, 662.3, 662.4, 662.5, 662.6, 662.7, 662.8, 662.9, 663.0, 663.1, 663.2, 663.3, 663.4, 663.5, 663.6, 663.7, 663.8, 663.9, 664.0, 664.1, 664.2, 664.3, 664.4, 664.5, 664.6, 664.7, 664.8, 664.9, 665.0, 665.1, 665.2, 665.3, 665.4, 665.5, 665.6, 665.7, 665.8, 665.9, 666.0, 666.1, 666.2, 666.3, 666.4, 666.5, 666.6, 666.7, 666.8, 666.9, 667.0, 667.1, 667.2, 667.3, 667.4, 667.5, 667.6, 667.7, 667.8, 667.9, 668.0, 668.1, 668.2, 668.3, 668.4, 668.5, 668.6, 668.7, 668.8, 668.9, 669.0, 669.1, 669.2, 669.3, 669.4, 669.5, 669.6, 669.7, 669.8, 669.9, 670.0, 670.1, 670.2, 670.3, 670.4, 670.5, 670.6, 670.7, 670.8, 670.9, 671.0, 671.1, 671.2, 671.3, 671.4, 671.5, 671.6
8.46e-05, 0.000155, 0.000277, 0.000485, 0.000833, 0.0014, 0.00231, 0.00372, 0.00588, 0.0091, 0.0138, 0.0205, 0.0298, 0.0424, 0.0592, 0.081, 0.108, 0.142, 0.183, 0.231, 0.285, 0.345, 0.41, 0.479, 0.548, 0.616, 0.681, 0.74, 0.793, 0.839, 0.876, 0.905, 0.928, 0.945, 0.957, 0.967, 0.974, 0.981, 0.987, 0.991, 0.995, 0.998, 0.999, 0.999, 0.998, 0.996, 0.994, 0.992, 0.991, 0.991, 0.993, 0.995, 0.997, 0.999, 1.0, 1.0, 0.999, 0.997, 0.995, 0.993, 0.991, 0.991, 0.992, 0.994, 0.996, 0.998, 0.999, 1.0, 0.999, 0.998, 0.996, 0.993, 0.992, 0.991, 0.991, 0.992, 0.994, 0.997, 0.999, 1.0, 1.0, 0.998, 0.996, 0.994, 0.992, 0.991, 0.99, 0.991, 0.993, 0.995, 0.997, 0.999, 1.0, 0.999, 0.997, 0.995, 0.993, 0.991, 0.99, 0.991, 0.992, 0.994, 0.996, 0.998, 0.998, 0.998, 0.996, 0.992, 0.988, 0.983, 0.977, 0.97, 0.961, 0.95, 0.936, 0.916, 0.89, 0.857, 0.815, 0.766, 0.709, 0.647, 0.58, 0.511, 0.442, 0.375, 0.312, 0.255, 0.204, 0.16, 0.123, 0.0927, 0.0684, 0.0495, 0.035, 0.0243, 0.0165, 0.011, 0.00716, 0.00457, 0.00286, 0.00175, 0.00105, 0.000617, 0.000355, 0.0002, 0.00011
band8
680.571670334
674.5, 674.6, 674.7, 674.8, 674.9, 675.0, 675.1, 675.2, 675.3, 675.4, 675.5, 675.6, 675.7, 675.8, 675.9, 676.0, 676.1, 676.2, 676.3, 676.4, 676.5, 676.6, 676.7, 676.8, 676.9, 677.0, 677.1, 677.2, 677.3, 677.4, 677.5, 677.6, 677.7, 677.8, 677.9, 678.0, 678.1, 678.2, 678.3, 678.4, 678.5, 678.6, 678.7, 678.8, 678.9, 679.0, 679.1, 679.2, 679.3, 679.4, 679.5, 679.6, 679.7, 679.8, 679.9, 680.0, 680.1, 680.2, 680.3, 680.4, 680.5, 680.6, 680.7, 680.8, 680.9, 681.0, 681.1, 681.2, 681.3, 681.4, 681.5, 681.6, 681.7, 681.8, 681.9, 682.0, 682.1, 682.2, 682.3, 682.4, 682.5, 682.6, 682.7, 682.8, 682.9, 683.0, 683.1, 683.2, 683.3, 683.4, 683.5, 683.6, 683.7, 683.8, 683.9, 684.0, 684.1, 684.2, 684.3, 684.4, 684.5, 684.6, 684.7, 684.8, 684.9, 685.0, 685.1, 685.2, 685.3, 685.4, 685.5, 685.6, 685.7, 685.8, 685.9, 686.0, 686.1, 686.2, 686.3, 686.4, 686.5, 686.6
8.22e-05, 0.000151, 0.00027, 0.000475, 0.000817, 0.00138, 0.00227, 0.00367, 0.00581, 0.00901, 0.0137, 0.0203, 0.0296, 0.0423, 0.0591, 0.0808, 0.108, 0.142, 0.183, 0.231, 0.286, 0.346, 0.412, 0.48, 0.55, 0.618, 0.683, 0.743, 0.795, 0.841, 0.878, 0.907, 0.929, 0.946, 0.958, 0.967, 0.975, 0.981, 0.987, 0.991, 0.995, 0.998, 0.999, 0.999, 0.998, 0.996, 0.993, 0.992, 0.991, 0.991, 0.992, 0.995, 0.997, 0.999, 1.0, 1.0, 0.999, 0.997, 0.994, 0.992, 0.991, 0.991, 0.991, 0.993, 0.996, 0.998, 0.999, 1.0, 0.999, 0.998, 0.995, 0.993, 0.991, 0.99, 0.991, 0.992, 0.994, 0.996, 0.998, 0.999, 0.998, 0.996, 0.993, 0.988, 0.983, 0.977, 0.97, 0.962, 0.951, 0.937, 0.917, 0.891, 0.858, 0.817, 0.767, 0.71, 0.647, 0.58, 0.511, 0.442, 0.375, 0.312, 0.254, 0.203, 0.159, 0.122, 0.0922, 0.0679, 0.049, 0.0347, 0.024, 0.0163, 0.0108, 0.00704, 0.00449, 0.0028, 0.00171, 0.00102, 0.0006, 0.000344, 0.000194, 0.000107
band9
708.080139841
700.7, 700.8, 700.9, 701.0, 701.1, 701.2, 701.3, 701.4, 701.5, 701.6, 701.7, 701.8, 701.9, 702.0, 702.1, 702.2, 702.3, 702.4, 702.5, 702.6, 702.7, 702.8, 702.9, 703.0, 703.1, 703.2, 703.3, 703.4, 703.5, 703.6, 703.7, 703.8, 703.9, 704.0, 704.1, 704.2, 704.3, 704.4, 704.5, 704.6, 704.7, 704.8, 704.9, 705.0, 705.1, 705.2, 705.3, 705.4, 705.5, 705.6, 705.7, 705.8, 705.9, 706.0, 706.1, 706.2, 706.3, 706.4, 706.5, 706.6, 706.7, 706.8, 706.9, 707.0, 707.1, 707.2, 707.3, 707.4, 707.5, 707.6, 707.7, 707.8, 707.9, 708.0, 708.1, 708.2, 708.3, 708.4, 708.5, 708.6, 708.7, 708.8, 708.9, 709.0, 709.1, 709.2, 709.3, 709.4, 709.5, 709.6, 709.7, 709.8, 709.9, 710.0, 710.1, 710.2, 710.3, 710.4, 710.5, 710.6, 710.7, 710.8, 710.9, 711.0, 711.1, 711.2, 711.3, 711.4, 711.5, 711.6, 711.7, 711.8, 711.9, 712.0, 712.1, 712.2, 712.3, 712.4, 712.5, 712.6, 712.7, 712.8, 712.9, 713.0, 713.1, 713.2, 713.3, 713.4, 713.5, 713.6, 713.7, 713.8, 713.9, 714.0, 714.1, 714.2, 714.3, 714.4, 714.5, 714.6, 714.7, 714.8, 714.9, 715.0, 715.1, 715.2, 715.3
5.41e-05, 0.000101, 0.000184, 0.000328, 0.000574, 0.000982, 0.00165, 0.0027, 0.00434, 0.00684, 0.0105, 0.0159, 0.0235, 0.034, 0.0482, 0.0669, 0.091, 0.121, 0.158, 0.202, 0.253, 0.31, 0.373, 0.441, 0.51, 0.58, 0.647, 0.711, 0.768, 0.817, 0.859, 0.892, 0.918, 0.937, 0.952, 0.962, 0.97, 0.977, 0.983, 0.989, 0.993, 0.997, 0.999, 0.999, 0.998, 0.997, 0.994, 0.992, 0.991, 0.99, 0.991, 0.993, 0.995, 0.998, 0.999, 1.0, 0.999, 0.998, 0.995, 0.993, 0.991, 0.99, 0.99, 0.992, 0.994, 0.996, 0.998, 1.0, 1.0, 0.999, 0.996, 0.994, 0.992, 0.99, 0.99, 0.991, 0.992, 0.995, 0.997, 0.999, 1.0, 0.999, 0.997, 0.995, 0.993, 0.991, 0.99, 0.99, 0.991, 0.993, 0.996, 0.998, 0.999, 0.999, 0.998, 0.996, 0.994, 0.991, 0.99, 0.989, 0.99, 0.992, 0.994, 0.997, 0.998, 0.998, 0.997, 0.994, 0.991, 0.986, 0.98, 0.974, 0.967, 0.958, 0.946, 0.93, 0.909, 0.88, 0.844, 0.799, 0.747, 0.687, 0.622, 0.553, 0.483, 0.415, 0.349, 0.287, 0.232, 0.184, 0.143, 0.109, 0.0809, 0.059, 0.0421, 0.0295, 0.0202, 0.0135, 0.00889, 0.00572, 0.0036, 0.00222, 0.00134, 0.000793, 0.000459, 0.00026, 0.000144
c4
band1
412.433615778
405.2, 405.3, 405.4, 405.5, 405.6, 405.7, 405.8, 405.9, 406.0, 406.1, 406.2, 406.3, 406.4, 406.5, 406.6, 406.7, 406.8, 406.9, 407.0, 407.1, 407.2, 407.3, 407.4, 407.5, 407.6, 407.7, 407.8, 407.9, 408.0, 408.1, 408.2, 408.3, 408.4, 408.5, 408.6, 408.7, 408.8, 408.9, 409.0, 409.1, 409.2, 409.3, 409.4, 409.5, 409.6, 409.7, 409.8, 409.9, 410.0, 410.1, 410.2, 410.3, 410.4, 410.5, 410.6, 410.7, 410.8, 410.9, 411.0, 411.1, 411.2, 411.3, 411.4, 411.5, 411.6, 411.7, 411.8, 411.9, 412.0, 412.1, 412.2, 412.3, 412.4, 412.5, 412.6, 412.7, 412.8, 412.9, 413.0, 413.1, 413.2, 413.3, 413.4, 413.5, 413.6, 413.7, 413.8, 413.9, 414.0, 414.1, 414.2, 414.3, 414.4, 414.5, 414.6, 414.7, 414.8, 414.9, 415.0, 415.1, 415.2, 415.3, 415.4, 415.5, 415.6, 415.7, 415.8, 415.9, 416.0, 416.1, 416.2, 416.3, 416.4, 416.5, 416.6, 416.7, 416.8, 416.9, 417.0, 417.1, 417.2, 417.3, 417.4, 417.5, 417.6, 417.7, 417.8, 417.9, 418.0, 418.1, 418.2, 418.3, 418.4, 418.5, 418.6, 418.7, 418.8, 418.9, 419.0, 419.1, 419.2, 419.3, 419.4, 419.5, 419.6
7.69e-05, 0.000144, 0.000263, 0.000471, 0.000825, 0.00141, 0.00237, 0.00388, 0.00621, 0.00974, 0.0149, 0.0224, 0.0328, 0.0471, 0.0661, 0.0907, 0.122, 0.16, 0.206, 0.259, 0.319, 0.385, 0.455, 0.527, 0.599, 0.668, 0.731, 0.787, 0.835, 0.874, 0.904, 0.926, 0.942, 0.954, 0.962, 0.969, 0.975, 0.981, 0.986, 0.991, 0.994, 0.996, 0.996, 0.994, 0.991, 0.988, 0.986, 0.985, 0.985, 0.987, 0.989, 0.993, 0.995, 0.997, 0.997, 0.996, 0.994, 0.991, 0.988, 0.986, 0.986, 0.987, 0.989, 0.992, 0.995, 0.997, 0.998, 0.998, 0.996, 0.993, 0.99, 0.988, 0.987, 0.987, 0.989, 0.992, 0.995, 0.997, 0.999, 0.999, 0.998, 0.995, 0.992, 0.99, 0.988, 0.988, 0.989, 0.991, 0.994, 0.997, 0.999, 1.0, 0.999, 0.997, 0.994, 0.992, 0.989, 0.988, 0.989, 0.991, 0.994, 0.997, 0.999, 1.0, 0.999, 0.997, 0.993, 0.988, 0.983, 0.977, 0.97, 0.963, 0.953, 0.939, 0.92, 0.894, 0.86, 0.817, 0.765, 0.706, 0.64, 0.57, 0.498, 0.427, 0.359, 0.295, 0.238, 0.188, 0.145, 0.11, 0.0813, 0.0589, 0.0417, 0.029, 0.0196, 0.013, 0.00847, 0.00539, 0.00335, 0.00204, 0.00121, 0.000706, 0.000402, 0.000224, 0.000122
band10
753.123045597
747.0, 747.1, 747.2, 747.3, 747.4, 747.5, 747.6, 747.7, 747.8, 747.9, 748.0, 748.1, 748.2, 748.3, 748.4, 748.5, 748.6, 748.7, 748.8, 748.9, 749.0, 749.1, 749.2, 749.3, 749.4, 749.5, 749.6, 749.7, 749.8, 749.9, 750.0, 750.1, 750.2, 750.3, 750.4, 750.5, 750.6, 750.7, 750.8, 750.9, 751.0, 751.1, 751.2, 751.3, 751.4, 751.5, 751.6, 751.7, 751.8, 751.9, 752.0, 752.1, 752.2, 752.3, 752.4, 752.5, 752.6, 752.7, 752.8, 752.9, 753.0, 753.1, 753.2, 753.3, 753.4, 753.5, 753.6, 753.7, 753.8, 753.9, 754.0, 754.1, 754.2, 754.3, 754.4, 754.5, 754.6, 754.7, 754.8, 754.9, 755.0, 755.1, 755.2, 755.3, 755.4, 755.5, 755.6, 755.7, 755.8, 755.9, 756.0, 756.1, 756.2, 756.3, 756.4, 756.5, 756.6, 756.7, 756.8, 756.9, 757.0, 757.1, 757.2, 757.3, 757.4, 757.5, 757.6, 757.7, 757.8, 757.9, 758.0, 758.1, 758.2, 758.3, 758.4, 758.5, 758.6, 758.7, 758.8, 758.9, 759.0
5.18e-05, 9.7e-05, 0.000178, 0.000319, 0.00056, 0.000963, 0.00162, 0.00267, 0.00431, 0.0068, 0.0105, 0.0159, 0.0236, 0.0342, 0.0485, 0.0675, 0.0919, 0.123, 0.16, 0.205, 0.256, 0.315, 0.379, 0.447, 0.517, 0.587, 0.655, 0.718, 0.775, 0.824, 0.865, 0.897, 0.922, 0.94, 0.953, 0.963, 0.971, 0.978, 0.984, 0.989, 0.993, 0.997, 0.999, 0.999, 0.998, 0.996, 0.994, 0.991, 0.99, 0.989, 0.99, 0.992, 0.995, 0.998, 0.999, 1.0, 0.999, 0.997, 0.995, 0.992, 0.99, 0.989, 0.99, 0.991, 0.994, 0.996, 0.998, 1.0, 1.0, 0.998, 0.996, 0.993, 0.991, 0.989, 0.989, 0.99, 0.992, 0.995, 0.997, 0.999, 0.999, 0.998, 0.995, 0.991, 0.986, 0.98, 0.974, 0.967, 0.958, 0.946, 0.931, 0.909, 0.881, 0.844, 0.799, 0.746, 0.685, 0.619, 0.55, 0.479, 0.41, 0.344, 0.283, 0.228, 0.18, 0.139, 0.105, 0.078, 0.0567, 0.0403, 0.028, 0.0191, 0.0127, 0.00832, 0.00532, 0.00333, 0.00204, 0.00122, 0.000719, 0.000413, 0.000232
band11
760.007913967
755.8, 755.9, 756.0, 756.1, 756.2, 756.3, 756.4, 756.5, 756.6, 756.7, 756.8, 756.9, 757.0, 757.1, 757.2, 757.3, 757.4, 757.5, 757.6, 757.7, 757.8, 757.9, 758.0, 758.1, 758.2, 758.3, 758.4, 758.5, 758.6, 758.7, 758.8, 758.9, 759.0, 759.1, 759.2, 759.3, 759.4, 759.5, 759.6, 759.7, 759.8, 759.9, 760.0, 760.1, 760.2, 760.3, 760.4, 760.5, 760.6, 760.7, 760.8, 760.9, 761.0, 761.1, 761.2, 761.3, 761.4, 761.5, 761.6, 761.7, 761.8, 761.9, 762.0, 762.1, 762.2, 762.3, 762.4, 762.5, 762.6, 762.7, 762.8, 762.9, 763.0, 763.1, 763.2, 763.3, 763.4, 763.5, 763.6, 763.7, 763.8, 763.9, 764.0, 764.1
6.5e-05, 0.000121, 0.00022, 0.000392, 0.000683, 0.00117, 0.00195, 0.00319, 0.0051, 0.008, 0.0123, 0.0184, 0.0271, 0.0391, 0.0551, 0.076, 0.103, 0.136, 0.176, 0.224, 0.278, 0.339, 0.405, 0.474, 0.545, 0.614, 0.681, 0.742, 0.796, 0.842, 0.88, 0.909, 0.931, 0.947, 0.959, 0.968, 0.975, 0.981, 0.987, 0.992, 0.996, 0.999, 1.0, 0.999, 0.997, 0.993, 0.988, 0.982, 0.976, 0.969, 0.961, 0.949, 0.934, 0.913, 0.885, 0.849, 0.804, 0.751, 0.691, 0.625, 0.556, 0.485, 0.416, 0.349, 0.287, 0.232, 0.183, 0.142, 0.108, 0.0798, 0.058, 0.0413, 0.0288, 0.0196, 0.0131, 0.00857, 0.00549, 0.00344, 0.00211, 0.00127, 0.000744, 0.000428, 0.000241, 0.000133
band12
778.160657513
768.3, 768.4, 768.5, 768.6, 768.7, 768.8, 768.9, 769.0, 769.1, 769.2, 769.3, 769.4, 769.5, 769.6, 769.7, 769.8, 769.9, 770.0, 770.1, 770.2, 770.3, 770.4, 770.5, 770.6, 770.7, 770.8, 770.9, 771.0, 771.1, 771.2, 771.3, 771.4, 771.5, 771.6, 771.7, 771.8, 771.9, 772.0, 772.1, 772.2, 772.3, 772.4, 772.5, 772.6, 772.7, 772.8, 772.9, 773.0, 773.1, 773.2, 773.3, 773.4, 773.5, 773.6, 773.7, 773.8, 773.9, 774.0, 774.1, 774.2, 774.3, 774.4, 774.5, 774.6, 774.7, 774.8, 774.9, 775.0, 775.1, 775.2, 775.3, 775.4, 775.5, 775.6, 775.7, 775.8, 775.9, 776.0, 776.1, 776.2, 776.3, 776.4, 776.5, 776.6, 776.7, 776.8, 776.9, 777.0, 777.1, 777.2, 777.3, 777.4, 777.5, 777.6, 777.7, 777.8, 777.9, 778.0, 778.1, 778.2, 778.3, 778.4, 778.5, 778.6, 778.7, 778.8, 778.9, 779.0, 779.1, 779.2, 779.3, 779.4, 779.5, 779.6, 779.7, 779.8, 779.9, 780.0, 780.1, 780.2, 780.3, 780.4, 780.5, 780.6, 780.7, 780.8, 780.9, 781.0, 781.1, 781.2, 781.3, 781.4, 781.5, 781.6, 781.7, 781.8, 781.9, 782.0, 782.1, 782.2, 782.3, 782.4, 782.5, 782.6, 782.7, 782.8, 782.9, 783.0, 783.1, 783.2, 783.3, 783.4, 783.5, 783.6, 783.7, 783.8, 783.9, 784.0, 784.1, 784.2, 784.3, 784.4, 784.5, 784.6, 784.7, 784.8, 784.9, 785.0, 785.1, 785.2, 785.3, 785.4, 785.5, 785.6, 785.7, 785.8, 785.9, 786.0, 786.1, 786.2, 786.3, 786.4, 786.5, 786.6, 786.7, 786.8, 786.9, 787.0, 787.1, 787.2, 787.3, 787.4, 787.5, 787.6, 787.7, 787.8
5.62e-05, 0.000105, 0.000192, 0.000345, 0.000604, 0.00104, 0.00174, 0.00286, 0.00461, 0.00727, 0.0112, 0.0169, 0.025, 0.0362, 0.0513, 0.0711, 0.0965, 0.128, 0.167, 0.213, 0.266, 0.326, 0.391, 0.46, 0.53, 0.6, 0.668, 0.73, 0.786, 0.833, 0.872, 0.903, 0.926, 0.943, 0.956, 0.965, 0.972, 0.979, 0.984, 0.99, 0.994, 0.997, 0.999, 0.999, 0.998, 0.996, 0.993, 0.991, 0.989, 0.989, 0.99, 0.993, 0.995, 0.998, 1.0, 1.0, 0.999, 0.997, 0.994, 0.992, 0.99, 0.989, 0.989, 0.991, 0.994, 0.997, 0.999, 1.0, 1.0, 0.998, 0.996, 0.993, 0.99, 0.989, 0.989, 0.99, 0.992, 0.995, 0.998, 0.999, 1.0, 0.999, 0.997, 0.994, 0.991, 0.989, 0.989, 0.989, 0.991, 0.993, 0.996, 0.998, 1.0, 0.999, 0.998, 0.995, 0.993, 0.99, 0.989, 0.989, 0.99, 0.992, 0.995, 0.997, 0.999, 1.0, 0.999, 0.997, 0.994, 0.991, 0.989, 0.988, 0.989, 0.991, 0.993, 0.996, 0.998, 0.999, 0.999, 0.998, 0.995, 0.992, 0.99, 0.988, 0.988, 0.989, 0.992, 0.994, 0.997, 0.999, 0.999, 0.998, 0.996, 0.994, 0.991, 0.989, 0.988, 0.988, 0.99, 0.993, 0.995, 0.998, 0.999, 0.999, 0.998, 0.995, 0.992, 0.99, 0.988, 0.988, 0.989, 0.991, 0.994, 0.996, 0.998, 0.998, 0.997, 0.994, 0.99, 0.985, 0.979, 0.973, 0.966, 0.957, 0.946, 0.93, 0.909, 0.88, 0.843, 0.798, 0.744, 0.684, 0.617, 0.548, 0.477, 0.407, 0.341, 0.28, 0.225, 0.177, 0.137, 0.103, 0.0765, 0.0554, 0.0393, 0.0273, 0.0185, 0.0123, 0.00803, 0.00512, 0.00319, 0.00195, 0.00117, 0.000682, 0.000391, 0.000219
band13
864.627349057
852.3, 852.4, 852.5, 852.6, 852.7, 852.8, 852.9, 853.0, 853.1, 853.2, 853.3, 853.4, 853.5, 853.6, 853.7, 853.8, 853.9, 854.0, 854.1, 854.2, 854.3, 854.4, 854.5, 854.6, 854.7, 854.8, 854.9, 855.0, 855.1, 855.2, 855.3, 855.4, 855.5, 855.6, 855.7, 855.8, 855.9, 856.0, 856.1, 856.2, 856.3, 856.4, 856.5, 856.6, 856.7, 856.8, 856.9, 857.0, 857.1, 857.2, 857.3, 857.4, 857.5, 857.6, 857.7, 857.8, 857.9, 858.0, 858.1, 858.2, 858.3, 858.4, 858.5, 858.6, 858.7, 858.8, 858.9, 859.0, 859.1, 859.2, 859.3, 859.4, 859.5, 859.6, 859.7, 859.8, 859.9, 860.0, 860.1, 860.2, 860.3, 860.4, 860.5, 860.6, 860.7, 860.8, 860.9, 861.0, 861.1, 861.2, 861.3, 861.4, 861.5, 861.6, 861.7, 861.8, 861.9, 862.0, 862.1, 862.2, 862.3, 862.4, 862.5, 862.6, 862.7, 862.8, 862.9, 863.0, 863.1, 863.2, 863.3, 863.4, 863.5, 863.6, 863.7, 863.8, 863.9, 864.0, 864.1, 864.2, 864.3, 864.4, 864.5, 864.6, 864.7, 864.8, 864.9, 865.0, 865.1, 865.2, 865.3, 865.4, 865.5, 865.6, 865.7, 865.8, 865.9, 866.0, 866.1, 866.2, 866.3, 866.4, 866.5, 866.6, 866.7, 866.8, 866.9, 867.0, 867.1, 867.2, 867.3, 867.4, 867.5, 867.6, 867.7, 867.8, 867.9, 868.0, 868.1, 868.2, 868.3, 868.4, 868.5, 868.6, 868.7, 868.8, 868.9, 869.0, 869.1, 869.2, 869.3, 869.4, 869.5, 869.6, 869.7, 869.8, 869.9, 870.0, 870.1, 870.2, 870.3, 870.4, 870.5, 870.6, 870.7, 870.8, 870.9, 871.0, 871.1, 871.2, 871.3, 871.4, 871.5, 871.6, 871.7, 871.8, 871.9, 872.0, 872.1, 872.2, 872.3, 872.4, 872.5, 872.6, 872.7, 872.8, 872.9, 873.0, 873.1, 873.2, 873.3, 873.4, 873.5, 873.6, 873.7, 873.8, 873.9, 874.0, 874.1, 874.2, 874.3, 874.4, 874.5, 874.6, 874.7, 874.8, 874.9, 875.0, 875.1, 875.2, 875.3, 875.4, 875.5, 875.6, 875.7, 875.8, 875.9, 876.0, 876.1, 876.2, 876.3, 876.4, 876.5, 876.6, 876.7, 876.8
7.01e-05, 0.000131, 0.000238, 0.000425, 0.000742, 0.00127, 0.00212, 0.00347, 0.00555, 0.00869, 0.0133, 0.02, 0.0294, 0.0422, 0.0594, 0.0818, 0.11, 0.146, 0.188, 0.238, 0.295, 0.358, 0.425, 0.496, 0.567, 0.637, 0.703, 0.762, 0.814, 0.857, 0.891, 0.918, 0.937, 0.951, 0.961, 0.969, 0.975, 0.981, 0.987, 0.992, 0.996, 0.998, 0.999, 0.999, 0.997, 0.994, 0.991, 0.989, 0.988, 0.989, 0.991, 0.994, 0.996, 0.999, 1.0, 1.0, 0.998, 0.995, 0.992, 0.99, 0.988, 0.988, 0.989, 0.992, 0.995, 0.998, 0.999, 1.0, 0.999, 0.997, 0.994, 0.991, 0.989, 0.988, 0.988, 0.99, 0.993, 0.996, 0.998, 1.0, 1.0, 0.998, 0.995, 0.992, 0.99, 0.988, 0.988, 0.989, 0.991, 0.994, 0.997, 0.999, 1.0, 0.999, 0.997, 0.994, 0.991, 0.989, 0.988, 0.988, 0.99, 0.993, 0.996, 0.998, 1.0, 1.0, 0.998, 0.995, 0.992, 0.99, 0.988, 0.988, 0.989, 0.991, 0.994, 0.997, 0.999, 1.0, 0.999, 0.997, 0.994, 0.991, 0.989, 0.988, 0.988, 0.99, 0.992, 0.995, 0.998, 0.999, 0.999, 0.998, 0.996, 0.993, 0.99, 0.988, 0.987, 0.988, 0.991, 0.994, 0.996, 0.999, 0.999, 0.999, 0.997, 0.994, 0.991, 0.989, 0.987, 0.988, 0.989, 0.992, 0.995, 0.997, 0.999, 0.999, 0.998, 0.996, 0.993, 0.99, 0.988, 0.987, 0.988, 0.99, 0.993, 0.996, 0.998, 0.999, 0.999, 0.997, 0.994, 0.991, 0.989, 0.987, 0.987, 0.989, 0.991, 0.994, 0.997, 0.999, 0.999, 0.998, 0.996, 0.993, 0.99, 0.988, 0.987, 0.988, 0.99, 0.993, 0.996, 0.998, 0.999, 0.999, 0.997, 0.994, 0.991, 0.989, 0.987, 0.987, 0.988, 0.991, 0.994, 0.996, 0.998, 0.998, 0.997, 0.993, 0.989, 0.983, 0.978, 0.972, 0.965, 0.956, 0.945, 0.929, 0.907, 0.878, 0.84, 0.793, 0.738, 0.676, 0.609, 0.538, 0.467, 0.397, 0.331, 0.27, 0.216, 0.169, 0.13, 0.0975, 0.0717, 0.0516, 0.0363, 0.025, 0.0169, 0.0111, 0.0072, 0.00455, 0.00281, 0.0017, 0.00101, 0.000585, 0.000331, 0.000184
band14
884.697163697
877.4, 877.5, 877.6, 877.7, 877.8, 877.9, 878.0, 878.1, 878.2, 878.3, 878.4, 878.5, 878.6, 878.7, 878.8, 878.9, 879.0, 879.1, 879.2, 879.3, 879.4, 879.5, 879.6, 879.7, 879.8, 879.9, 880.0, 880.1, 880.2, 880.3, 880.4, 880.5, 880.6, 880.7, 880.8, 880.9, 881.0, 881.1, 881.2, 881.3, 881.4, 881.5, 881.6, 881.7, 881.8, 881.9, 882.0, 882.1, 882.2, 882.3, 882.4, 882.5, 882.6, 882.7, 882.8, 882.9, 883.0, 883.1, 883.2, 883.3, 883.4, 883.5, 883.6, 883.7, 883.8, 883.9, 884.0, 884.1, 884.2, 884.3, 884.4, 884.5, 884.6, 884.7, 884.8, 884.9, 885.0, 885.1, 885.2, 885.3, 885.4, 885.5, 885.6, 885.7, 885.8, 885.9, 886.0, 886.1, 886.2, 886.3, 886.4, 886.5, 886.6, 886.7, 886.8, 886.9, 887.0, 887.1, 887.2, 887.3, 887.4, 887.5, 887.6, 887.7, 887.8, 887.9, 888.0, 888.1, 888.2, 888.3, 888.4, 888.5, 888.6, 888.7, 888.8, 888.9, 889.0, 889.1, 889.2, 889.3, 889.4, 889.5, 889.6, 889.7, 889.8, 889.9, 890.0, 890.1, 890.2, 890.3, 890.4, 890.5, 890.6, 890.7, 890.8, 890.9, 891.0, 891.1, 891.2, 891.3, 891.4, 891.5, 891.6, 891.7, 891.8, 891.9
7.63e-05, 0.000142, 0.000258, 0.00046, 0.000801, 0.00136, 0.00228, 0.00371, 0.00593, 0.00927, 0.0142, 0.0212, 0.0311, 0.0446, 0.0625, 0.0859, 0.115, 0.152, 0.196, 0.247, 0.305, 0.369, 0.437, 0.508, 0.58, 0.649, 0.714, 0.772, 0.822, 0.864, 0.897, 0.922, 0.94, 0.953, 0.962, 0.97, 0.976, 0.982, 0.988, 0.993, 0.996, 0.999, 0.999, 0.998, 0.996, 0.993, 0.99, 0.988, 0.988, 0.989, 0.991, 0.994, 0.997, 0.999, 1.0, 0.999, 0.998, 0.995, 0.992, 0.989, 0.988, 0.988, 0.989, 0.992, 0.995, 0.998, 1.0, 1.0, 0.999, 0.996, 0.993, 0.99, 0.988, 0.988, 0.988, 0.99, 0.993, 0.996, 0.999, 1.0, 0.999, 0.998, 0.995, 0.992, 0.989, 0.988, 0.988, 0.989, 0.992, 0.995, 0.997, 0.999, 1.0, 0.999, 0.996, 0.993, 0.99, 0.988, 0.987, 0.988, 0.99, 0.993, 0.996, 0.998, 0.999, 0.998, 0.996, 0.992, 0.987, 0.981, 0.975, 0.969, 0.962, 0.952, 0.939, 0.92, 0.895, 0.862, 0.82, 0.769, 0.711, 0.646, 0.576, 0.505, 0.434, 0.366, 0.302, 0.244, 0.193, 0.15, 0.114, 0.0845, 0.0615, 0.0438, 0.0305, 0.0208, 0.0139, 0.00905, 0.00578, 0.00361, 0.00221, 0.00132, 0.000776, 0.000445, 0.000249, 0.000137
band15
899.753104609
892.4, 892.5, 892.6, 892.7, 892.8, 892.9, 893.0, 893.1, 893.2, 893.3, 893.4, 893.5, 893.6, 893.7, 893.8, 893.9, 894.0, 894.1, 894.2, 894.3, 894.4, 894.5, 894.6, 894.7, 894.8, 894.9, 895.0, 895.1, 895.2, 895.3, 895.4, 895.5, 895.6, 895.7, 895.8, 895.9, 896.0, 896.1, 896.2, 896.3, 896.4, 896.5, 896.6, 896.7, 896.8, 896.9, 897.0, 897.1, 897.2, 897.3, 897.4, 897.5, 897.6, 897.7, 897.8, 897.9, 898.0, 898.1, 898.2, 898.3, 898.4, 898.5, 898.6, 898.7, 898.8, 898.9, 899.0, 899.1, 899.2, 899.3, 899.4, 899.5, 899.6, 899.7, 899.8, 899.9, 900.0, 900.1, 900.2, 900.3, 900.4, 900.5, 900.6, 900.7, 900.8, 900.9, 901.0, 901.1, 901.2, 901.3, 901.4, 901.5, 901.6, 901.7, 901.8, 901.9, 902.0, 902.1, 902.2, 902.3, 902.4, 902.5, 902.6, 902.7, 902.8, 902.9, 903.0, 903.1, 903.2, 903.3, 903.4, 903.5, 903.6, 903.7, 903.8, 903.9, 904.0, 904.1, 904.2, 904.3, 904.4, 904.5, 904.6, 904.7, 904.8, 904.9, 905.0, 905.1, 905.2, 905.3, 905.4, 905.5, 905.6, 905.7, 905.8, 905.9, 906.0, 906.1, 906.2, 906.3, 906.4, 906.5, 906.6, 906.7, 906.8, 906.9
5.3e-05, 9.97e-05, 0.000184, 0.000331, 0.000585, 0.00101, 0.00171, 0.00282, 0.00456, 0.00722, 0.0112, 0.017, 0.0252, 0.0365, 0.0519, 0.0721, 0.0981, 0.131, 0.17, 0.218, 0.272, 0.333, 0.399, 0.469, 0.541, 0.612, 0.679, 0.741, 0.796, 0.843, 0.88, 0.909, 0.931, 0.947, 0.958, 0.966, 0.973, 0.979, 0.985, 0.99, 0.994, 0.998, 0.999, 0.999, 0.997, 0.995, 0.992, 0.989, 0.988, 0.988, 0.989, 0.992, 0.995, 0.998, 1.0, 1.0, 0.999, 0.996, 0.993, 0.99, 0.988, 0.988, 0.988, 0.99, 0.993, 0.996, 0.999, 1.0, 1.0, 0.998, 0.995, 0.992, 0.989, 0.988, 0.988, 0.989, 0.992, 0.995, 0.998, 0.999, 1.0, 0.999, 0.996, 0.993, 0.99, 0.988, 0.987, 0.988, 0.99, 0.993, 0.996, 0.998, 1.0, 0.999, 0.998, 0.995, 0.992, 0.989, 0.988, 0.987, 0.989, 0.991, 0.994, 0.997, 0.999, 0.999, 0.997, 0.994, 0.99, 0.984, 0.979, 0.973, 0.966, 0.958, 0.947, 0.932, 0.911, 0.882, 0.846, 0.8, 0.746, 0.684, 0.617, 0.546, 0.474, 0.404, 0.337, 0.276, 0.221, 0.173, 0.133, 0.1, 0.0737, 0.0531, 0.0374, 0.0258, 0.0174, 0.0115, 0.00743, 0.0047, 0.00291, 0.00176, 0.00104, 0.000605, 0.000343, 0.000191
band2
442.302283223
435.0, 435.1, 435.2, 435.3, 435.4, 435.5, 435.6, 435.7, 435.8, 435.9, 436.0, 436.1, 436.2, 436.3, 436.4, 436.5, 436.6, 436.7, 436.8, 436.9, 437.0, 437.1, 437.2, 437.3, 437.4, 437.5, 437.6, 437.7, 437.8, 437.9, 438.0, 438.1, 438.2, 438.3, 438.4, 438.5, 438.6, 438.7, 438.8, 438.9, 439.0, 439.1, 439.2, 439.3, 439.4, 439.5, 439.6, 439.7, 439.8, 439.9, 440.0, 440.1, 440.2, 440.3, 440.4, 440.5, 440.6, 440.7, 440.8, 440.9, 441.0, 441.1, 441.2, 441.3, 441.4, 441.5, 441.6, 441.7, 441.8, 441.9, 442.0, 442.1, 442.2, 442.3, 442.4, 442.5, 442.6, 442.7, 442.8, 442.9, 443.0, 443.1, 443.2, 443.3, 443.4, 443.5, 443.6, 443.7, 443.8, 443.9, 444.0, 444.1, 444.2, 444.3, 444.4, 444.5, 444.6, 444.7, 444.8, 444.9, 445.0, 445.1, 445.2, 445.3, 445.4, 445.5, 445.6, 445.7, 445.8, 445.9, 446.0, 446.1, 446.2, 446.3, 446.4, 446.5, 446.6, 446.7, 446.8, 446.9, 447.0, 447.1, 447.2, 447.3, 447.4, 447.5, 447.6, 447.7, 447.8, 447.9, 448.0, 448.1, 448.2, 448.3, 448.4, 448.5, 448.6, 448.7, 448.8, 448.9, 449.0, 449.1, 449.2, 449.3, 449.4, 449.5
7.03e-05, 0.00013, 0.000236, 0.00042, 0.00073, 0.00124, 0.00207, 0.00338, 0.0054, 0.00844, 0.0129, 0.0193, 0.0284, 0.0407, 0.0572, 0.0788, 0.106, 0.14, 0.181, 0.229, 0.284, 0.345, 0.411, 0.481, 0.551, 0.62, 0.685, 0.745, 0.798, 0.843, 0.879, 0.908, 0.929, 0.945, 0.957, 0.965, 0.972, 0.979, 0.984, 0.989, 0.993, 0.996, 0.997, 0.997, 0.995, 0.993, 0.99, 0.989, 0.988, 0.989, 0.99, 0.993, 0.995, 0.997, 0.998, 0.998, 0.997, 0.995, 0.992, 0.99, 0.989, 0.989, 0.99, 0.992, 0.995, 0.997, 0.999, 0.999, 0.998, 0.996, 0.994, 0.992, 0.99, 0.989, 0.99, 0.992, 0.994, 0.997, 0.999, 0.999, 0.999, 0.998, 0.996, 0.993, 0.991, 0.99, 0.99, 0.991, 0.994, 0.996, 0.998, 1.0, 1.0, 0.999, 0.997, 0.995, 0.992, 0.991, 0.99, 0.991, 0.993, 0.995, 0.998, 0.999, 1.0, 0.999, 0.996, 0.992, 0.987, 0.982, 0.975, 0.968, 0.959, 0.947, 0.931, 0.909, 0.88, 0.843, 0.798, 0.745, 0.685, 0.619, 0.55, 0.48, 0.411, 0.345, 0.284, 0.23, 0.182, 0.141, 0.107, 0.0794, 0.0578, 0.0412, 0.0288, 0.0197, 0.0132, 0.00863, 0.00554, 0.00348, 0.00214, 0.00129, 0.00076, 0.000439, 0.000248, 0.000137
band3
489.626577523
482.3, 482.4, 482.5, 482.6, 482.7, 482.8, 482.9, 483.0, 483.1, 483.2, 483.3, 483.4, 483.5, 483.6, 483.7, 483.8, 483.9, 484.0, 484.1, 484.2, 484.3, 484.4, 484.5, 484.6, 484.7, 484.8, 484.9, 485.0, 485.1, 485.2, 485.3, 485.4, 485.5, 485.6, 485.7, 485.8, 485.9, 486.0, 486.1, 486.2, 486.3, 486.4, 486.5, 486.6, 486.7, 486.8, 486.9, 487.0, 487.1, 487.2, 487.3, 487.4, 487.5, 487.6, 487.7, 487.8, 487.9, 488.0, 488.1, 488.2, 488.3, 488.4, 488.5, 488.6, 488.7, 488.8, 488.9, 489.0, 489.1, 489.2, 489.3, 489.4, 489.5, 489.6, 489.7, 489.8, 489.9, 490.0, 490.1, 490.2, 490.3, 490.4, 490.5, 490.6, 490.7, 490.8, 490.9, 491.0, 491.1, 491.2, 491.3, 491.4, 491.5, 491.6, 491.7, 491.8, 491.9, 492.0, 492.1, 492.2, 492.3, 492.4, 492.5, 492.6, 492.7, 492.8, 492.9, 493.0, 493.1, 493.2, 493.3, 493.4, 493.5, 493.6, 493.7, 493.8, 493.9, 494.0, 494.1, 494.2, 494.3, 494.4, 494.5, 494.6, 494.7, 494.8, 494.9, 495.0, 495.1, 495.2, 495.3, 495.4, 495.5, 495.6, 495.7, 495.8, 495.9, 496.0, 496.1, 496.2, 496.3, 496.4, 496.5, 496.6, 496.7, 496.8, 496.9
8.29e-05, 0.000151, 0.00027, 0.000473, 0.00081, 0.00136, 0.00224, 0.00361, 0.00569, 0.0088, 0.0133, 0.0198, 0.0288, 0.041, 0.0572, 0.0783, 0.105, 0.138, 0.177, 0.224, 0.277, 0.336, 0.4, 0.467, 0.536, 0.604, 0.668, 0.729, 0.782, 0.829, 0.867, 0.898, 0.922, 0.94, 0.954, 0.964, 0.972, 0.979, 0.985, 0.99, 0.994, 0.996, 0.998, 0.998, 0.997, 0.995, 0.993, 0.992, 0.991, 0.991, 0.992, 0.994, 0.996, 0.998, 0.999, 0.999, 0.998, 0.997, 0.995, 0.993, 0.991, 0.991, 0.992, 0.994, 0.996, 0.998, 0.999, 1.0, 0.999, 0.998, 0.996, 0.994, 0.992, 0.991, 0.992, 0.993, 0.995, 0.997, 0.999, 1.0, 1.0, 0.999, 0.997, 0.995, 0.993, 0.992, 0.992, 0.993, 0.994, 0.996, 0.998, 1.0, 1.0, 0.999, 0.998, 0.996, 0.994, 0.993, 0.992, 0.992, 0.993, 0.995, 0.997, 0.999, 0.999, 0.998, 0.996, 0.993, 0.989, 0.983, 0.977, 0.97, 0.96, 0.948, 0.933, 0.912, 0.884, 0.85, 0.807, 0.757, 0.7, 0.637, 0.57, 0.502, 0.434, 0.368, 0.307, 0.251, 0.201, 0.158, 0.121, 0.0915, 0.0677, 0.049, 0.0348, 0.0242, 0.0165, 0.011, 0.00721, 0.00462, 0.0029, 0.00179, 0.00108, 0.000636, 0.000368, 0.000209, 0.000116
band4
509.564329959
502.2, 502.3, 502.4, 502.5, 502.6, 502.7, 502.8, 502.9, 503.0, 503.1, 503.2, 503.3, 503.4, 503.5, 503.6, 503.7, 503.8, 503.9, 504.0, 504.1, 504.2, 504.3, 504.4, 504.5, 504.6, 504.7, 504.8, 504.9, 505.0, 505.1, 505.2, 505.3, 505.4, 505.5, 505.6, 505.7, 505.8, 505.9, 506.0, 506.1, 506.2, 506.3, 506.4, 506.5, 506.6, 506.7, 506.8, 506.9, 507.0, 507.1, 507.2, 507.3, 507.4, 507.5, 507.6, 507.7, 507.8, 507.9, 508.0, 508.1, 508.2, 508.3, 508.4, 508.5, 508.6, 508.7, 508.8, 508.9, 509.0, 509.1, 509.2, 509.3, 509.4, 509.5, 509.6, 509.7, 509.8, 509.9, 510.0, 510.1, 510.2, 510.3, 510.4, 510.5, 510.6, 510.7, 510.8, 510.9, 511.0, 511.1, 511.2, 511.3, 511.4, 511.5, 511.6, 511.7, 511.8, 511.9, 512.0, 512.1, 512.2, 512.3, 512.4, 512.5, 512.6, 512.7, 512.8, 512.9, 513.0, 513.1, 513.2, 513.3, 513.4, 513.5, 513.6, 513.7, 513.8, 513.9, 514.0, 514.1, 514.2, 514.3, 514.4, 514.5, 514.6, 514.7, 514.8, 514.9, 515.0, 515.1, 515.2, 515.3, 515.4, 515.5, 515.6, 515.7, 515.8, 515.9, 516.0, 516.1, 516.2, 516.3, 516.4, 516.5, 516.6, 516.7, 516.8
7.05e-05, 0.000129, 0.000231, 0.000406, 0.000698, 0.00118, 0.00194, 0.00314, 0.00498, 0.00774, 0.0118, 0.0176, 0.0257, 0.0368, 0.0516, 0.0709, 0.0955, 0.126, 0.163, 0.207, 0.258, 0.315, 0.377, 0.443, 0.511, 0.579, 0.645, 0.707, 0.763, 0.812, 0.853, 0.887, 0.914, 0.934, 0.949, 0.961, 0.97, 0.977, 0.983, 0.988, 0.993, 0.996, 0.998, 0.998, 0.998, 0.996, 0.995, 0.993, 0.992, 0.992, 0.992, 0.994, 0.996, 0.998, 0.999, 1.0, 0.999, 0.998, 0.996, 0.994, 0.992, 0.992, 0.992, 0.993, 0.995, 0.997, 0.999, 1.0, 1.0, 0.999, 0.997, 0.995, 0.993, 0.992, 0.992, 0.993, 0.994, 0.996, 0.998, 1.0, 1.0, 0.999, 0.998, 0.996, 0.994, 0.993, 0.992, 0.992, 0.994, 0.996, 0.998, 0.999, 1.0, 1.0, 0.999, 0.997, 0.995, 0.993, 0.992, 0.992, 0.993, 0.995, 0.997, 0.998, 0.999, 0.999, 0.997, 0.994, 0.99, 0.985, 0.979, 0.973, 0.964, 0.953, 0.939, 0.92, 0.895, 0.863, 0.824, 0.777, 0.723, 0.662, 0.597, 0.53, 0.462, 0.395, 0.332, 0.273, 0.221, 0.175, 0.136, 0.104, 0.0774, 0.0567, 0.0406, 0.0286, 0.0197, 0.0133, 0.00878, 0.00569, 0.00361, 0.00225, 0.00137, 0.000819, 0.000479, 0.000275, 0.000154
band5
559.440262161
552.1, 552.2, 552.3, 552.4, 552.5, 552.6, 552.7, 552.8, 552.9, 553.0, 553.1, 553.2, 553.3, 553.4, 553.5, 553.6, 553.7, 553.8, 553.9, 554.0, 554.1, 554.2, 554.3, 554.4, 554.5, 554.6, 554.7, 554.8, 554.9, 555.0, 555.1, 555.2, 555.3, 555.4, 555.5, 555.6, 555.7, 555.8, 555.9, 556.0, 556.1, 556.2, 556.3, 556.4, 556.5, 556.6, 556.7, 556.8, 556.9, 557.0, 557.1, 557.2, 557.3, 557.4, 557.5, 557.6, 557.7, 557.8, 557.9, 558.0, 558.1, 558.2, 558.3, 558.4, 558.5, 558.6, 558.7, 558.8, 558.9, 559.0, 559.1, 559.2, 559.3, 559.4, 559.5, 559.6, 559.7, 559.8, 559.9, 560.0, 560.1, 560.2, 560.3, 560.4, 560.5, 560.6, 560.7, 560.8, 560.9, 561.0, 561.1, 561.2, 561.3, 561.4, 561.5, 561.6, 561.7, 561.8, 561.9, 562.0, 562.1, 562.2, 562.3, 562.4, 562.5, 562.6, 562.7, 562.8, 562.9, 563.0, 563.1, 563.2, 563.3, 563.4, 563.5, 563.6, 563.7, 563.8, 563.9, 564.0, 564.1, 564.2, 564.3, 564.4, 564.5, 564.6, 564.7, 564.8, 564.9, 565.0, 565.1, 565.2, 565.3, 565.4, 565.5, 565.6, 565.7, 565.8, 565.9, 566.0, 566.1, 566.2, 566.3, 566.4, 566.5, 566.6, 566.7
8.71e-05, 0.000158, 0.000281, 0.000489, 0.000834, 0.00139, 0.00228, 0.00366, 0.00576, 0.00888, 0.0134, 0.0198, 0.0288, 0.0409, 0.057, 0.0778, 0.104, 0.137, 0.176, 0.221, 0.274, 0.332, 0.395, 0.462, 0.53, 0.597, 0.662, 0.722, 0.776, 0.824, 0.863, 0.895, 0.92, 0.939, 0.953, 0.964, 0.972, 0.979, 0.985, 0.99, 0.994, 0.997, 0.999, 0.999, 0.998, 0.997, 0.995, 0.993, 0.992, 0.992, 0.993, 0.995, 0.997, 0.999, 1.0, 1.0, 0.999, 0.998, 0.996, 0.994, 0.993, 0.992, 0.993, 0.994, 0.996, 0.998, 0.999, 1.0, 1.0, 0.998, 0.997, 0.995, 0.993, 0.992, 0.992, 0.993, 0.995, 0.997, 0.999, 1.0, 1.0, 0.999, 0.997, 0.996, 0.994, 0.992, 0.992, 0.993, 0.994, 0.996, 0.998, 0.999, 1.0, 0.999, 0.998, 0.996, 0.994, 0.993, 0.992, 0.992, 0.993, 0.995, 0.997, 0.998, 0.999, 0.998, 0.996, 0.993, 0.989, 0.984, 0.978, 0.971, 0.962, 0.95, 0.935, 0.915, 0.889, 0.856, 0.815, 0.767, 0.711, 0.65, 0.585, 0.517, 0.449, 0.383, 0.321, 0.263, 0.212, 0.168, 0.13, 0.0987, 0.0734, 0.0536, 0.0383, 0.0269, 0.0184, 0.0124, 0.00819, 0.00529, 0.00335, 0.00208, 0.00126, 0.000753, 0.00044, 0.000252, 0.000141
band6
619.349162711
612.0, 612.1, 612.2, 612.3, 612.4, 612.5, 612.6, 612.7, 612.8, 612.9, 613.0, 613.1, 613.2, 613.3, 613.4, 613.5, 613.6, 613.7, 613.8, 613.9, 614.0, 614.1, 614.2, 614.3, 614.4, 614.5, 614.6, 614.7, 614.8, 614.9, 615.0, 615.1, 615.2, 615.3, 615.4, 615.5, 615.6, 615.7, 615.8, 615.9, 616.0, 616.1, 616.2, 616.3, 616.4, 616.5, 616.6, 616.7, 616.8, 616.9, 617.0, 617.1, 617.2, 617.3, 617.4, 617.5, 617.6, 617.7, 617.8, 617.9, 618.0, 618.1, 618.2, 618.3, 618.4, 618.5, 618.6, 618.7, 618.8, 618.9, 619.0, 619.1, 619.2, 619.3, 619.4, 619.5, 619.6, 619.7, 619.8, 619.9, 620.0, 620.1, 620.2, 620.3, 620.4, 620.5, 620.6, 620.7, 620.8, 620.9, 621.0, 621.1, 621.2, 621.3, 621.4, 621.5, 621.6, 621.7, 621.8, 621.9, 622.0, 622.1, 622.2, 622.3, 622.4, 622.5, 622.6, 622.7, 622.8, 622.9, 623.0, 623.1, 623.2, 623.3, 623.4, 623.5, 623.6, 623.7, 623.8, 623.9, 624.0, 624.1, 624.2, 624.3, 624.4, 624.5, 624.6, 624.7, 624.8, 624.9, 625.0, 625.1, 625.2, 625.3, 625.4, 625.5, 625.6, 625.7, 625.8, 625.9, 626.0, 626.1, 626.2, 626.3, 626.4, 626.5, 626.6
7.8e-05, 0.000142, 0.000255, 0.000446, 0.000766, 0.00129, 0.00212, 0.00342, 0.00541, 0.00838, 0.0127, 0.0189, 0.0276, 0.0393, 0.055, 0.0754, 0.101, 0.133, 0.172, 0.218, 0.27, 0.328, 0.391, 0.458, 0.527, 0.595, 0.66, 0.721, 0.776, 0.823, 0.863, 0.895, 0.92, 0.939, 0.953, 0.964, 0.972, 0.979, 0.985, 0.99, 0.994, 0.997, 0.999, 0.999, 0.998, 0.997, 0.995, 0.993, 0.992, 0.992, 0.993, 0.995, 0.997, 0.999, 1.0, 1.0, 0.999, 0.998, 0.996, 0.994, 0.992, 0.992, 0.992, 0.993, 0.995, 0.997, 0.999, 1.0, 1.0, 0.998, 0.996, 0.994, 0.993, 0.991, 0.991, 0.992, 0.994, 0.996, 0.998, 0.999, 1.0, 0.999, 0.997, 0.995, 0.993, 0.992, 0.991, 0.992, 0.993, 0.995, 0.997, 0.999, 1.0, 0.999, 0.998, 0.996, 0.994, 0.992, 0.991, 0.991, 0.992, 0.994, 0.996, 0.997, 0.998, 0.998, 0.996, 0.993, 0.989, 0.984, 0.978, 0.971, 0.963, 0.952, 0.938, 0.92, 0.895, 0.863, 0.823, 0.776, 0.721, 0.66, 0.595, 0.527, 0.458, 0.391, 0.328, 0.27, 0.217, 0.172, 0.133, 0.101, 0.0752, 0.0549, 0.0392, 0.0275, 0.0188, 0.0127, 0.00833, 0.00537, 0.0034, 0.0021, 0.00128, 0.000758, 0.000441, 0.000252, 0.000141
band7
664.322430724
657.0, 657.1, 657.2, 657.3, 657.4, 657.5, 657.6, 657.7, 657.8, 657.9, 658.0, 658.1, 658.2, 658.3, 658.4, 658.5, 658.6, 658.7, 658.8, 658.9, 659.0, 659.1, 659.2, 659.3, 659.4, 659.5, 659.6, 659.7, 659.8, 659.9, 660.0, 660.1, 660.2, 660.3, 660.4, 660.5, 660.6, 660.7, 660.8, 660.9, 661.0, 661.1, 661.2, 661.3, 661.4, 661.5, 661.6, 661.7, 661.8, 661.9, 662.0, 662.1, 662.2, 662.3, 662.4, 662.5, 662.6, 662.7, 662.8, 662.9, 663.0, 663.1, 663.2, 663.3, 663.4, 663.5, 663.6, 663.7, 663.8, 663.9, 664.0, 664.1, 664.2, 664.3, 664.4, 664.5, 664.6, 664.7, 664.8, 664.9, 665.0, 665.1, 665.2, 665.3, 665.4, 665.5, 665.6, 665.7, 665.8, 665.9, 666.0, 666.1, 666.2, 666.3, 666.4, 666.5, 666.6, 666.7, 666.8, 666.9, 667.0, 667.1, 667.2, 667.3, 667.4, 667.5, 667.6, 667.7, 667.8, 667.9, 668.0, 668.1, 668.2, 668.3, 668.4, 668.5, 668.6, 668.7, 668.8, 668.9, 669.0, 669.1, 669.2, 669.3, 669.4, 669.5, 669.6, 669.7, 669.8, 669.9, 670.0, 670.1, 670.2, 670.3, 670.4, 670.5, 670.6, 670.7, 670.8, 670.9, 671.0, 671.1, 671.2, 671.3, 671.4, 671.5, 671.6
8.46e-05, 0.000155, 0.000277, 0.000485, 0.000833, 0.0014, 0.00231, 0.00372, 0.00588, 0.0091, 0.0138, 0.0205, 0.0298, 0.0424, 0.0592, 0.081, 0.108, 0.142, 0.183, 0.231, 0.285, 0.345, 0.41, 0.479, 0.548, 0.616, 0.681, 0.74, 0.793, 0.839, 0.876, 0.905, 0.928, 0.945, 0.957, 0.967, 0.974, 0.981, 0.987, 0.991, 0.995, 0.998, 0.999, 0.999, 0.998, 0.996, 0.994, 0.992, 0.991, 0.991, 0.993, 0.995, 0.997, 0.999, 1.0, 1.0, 0.999, 0.997, 0.995, 0.993, 0.991, 0.991, 0.992, 0.994, 0.996, 0.998, 0.999, 1.0, 0.999, 0.998, 0.996, 0.993, 0.992, 0.991, 0.991, 0.992, 0.994, 0.997, 0.999, 1.0, 1.0, 0.998, 0.996, 0.994, 0.992, 0.991, 0.99, 0.991, 0.993, 0.995, 0.997, 0.999, 1.0, 0.999, 0.997, 0.995, 0.993, 0.991, 0.99, 0.991, 0.992, 0.994, 0.996, 0.998, 0.998, 0.998, 0.996, 0.992, 0.988, 0.983, 0.977, 0.97, 0.961, 0.95, 0.936, 0.916, 0.89, 0.857, 0.815, 0.766, 0.709, 0.647, 0.58, 0.511, 0.442, 0.375, 0.312, 0.255, 0.204, 0.16, 0.123, 0.0927, 0.0684, 0.0495, 0.035, 0.0243, 0.0165, 0.011, 0.00716, 0.00457, 0.00286, 0.00175, 0.00105, 0.000617, 0.000355, 0.0002, 0.00011
band8
680.571670334
674.5, 674.6, 674.7, 674.8, 674.9, 675.0, 675.1, 675.2, 675.3, 675.4, 675.5, 675.6, 675.7, 675.8, 675.9, 676.0, 676.1, 676.2, 676.3, 676.4, 676.5, 676.6, 676.7, 676.8, 676.9, 677.0, 677.1, 677.2, 677.3, 677.4, 677.5, 677.6, 677.7, 677.8, 677.9, 678.0, 678.1, 678.2, 678.3, 678.4, 678.5, 678.6, 678.7, 678.8, 678.9, 679.0, 679.1, 679.2, 679.3, 679.4, 679.5, 679.6, 679.7, 679.8, 679.9, 680.0, 680.1, 680.2, 680.3, 680.4, 680.5, 680.6, 680.7, 680.8, 680.9, 681.0, 681.1, 681.2, 681.3, 681.4, 681.5, 681.6, 681.7, 681.8, 681.9, 682.0, 682.1, 682.2, 682.3, 682.4, 682.5, 682.6, 682.7, 682.8, 682.9, 683.0, 683.1, 683.2, 683.3, 683.4, 683.5, 683.6, 683.7, 683.8, 683.9, 684.0, 684.1, 684.2, 684.3, 684.4, 684.5, 684.6, 684.7, 684.8, 684.9, 685.0, 685.1, 685.2, 685.3, 685.4, 685.5, 685.6, 685.7, 685.8, 685.9, 686.0, 686.1, 686.2, 686.3, 686.4, 686.5, 686.6
8.22e-05, 0.000151, 0.00027, 0.000475, 0.000817, 0.00138, 0.00227, 0.00367, 0.00581, 0.00901, 0.0137, 0.0203, 0.0296, 0.0423, 0.0591, 0.0808, 0.108, 0.142, 0.183, 0.231, 0.286, 0.346, 0.412, 0.48, 0.55, 0.618, 0.683, 0.743, 0.795, 0.841, 0.878, 0.907, 0.929, 0.946, 0.958, 0.967, 0.975, 0.981, 0.987, 0.991, 0.995, 0.998, 0.999, 0.999, 0.998, 0.996, 0.993, 0.992, 0.991, 0.991, 0.992, 0.995, 0.997, 0.999, 1.0, 1.0, 0.999, 0.997, 0.994, 0.992, 0.991, 0.991, 0.991, 0.993, 0.996, 0.998, 0.999, 1.0, 0.999, 0.998, 0.995, 0.993, 0.991, 0.99, 0.991, 0.992, 0.994, 0.996, 0.998, 0.999, 0.998, 0.996, 0.993, 0.988, 0.983, 0.977, 0.97, 0.962, 0.951, 0.937, 0.917, 0.891, 0.858, 0.817, 0.767, 0.71, 0.647, 0.58, 0.511, 0.442, 0.375, 0.312, 0.254, 0.203, 0.159, 0.122, 0.0922, 0.0679, 0.049, 0.0347, 0.024, 0.0163, 0.0108, 0.00704, 0.00449, 0.0028, 0.00171, 0.00102, 0.0006, 0.000344, 0.000194, 0.000107
band9
708.080139841
700.7, 700.8, 700.9, 701.0, 701.1, 701.2, 701.3, 701.4, 701.5, 701.6, 701.7, 701.8, 701.9, 702.0, 702.1, 702.2, 702.3, 702.4, 702.5, 702.6, 702.7, 702.8, 702.9, 703.0, 703.1, 703.2, 703.3, 703.4, 703.5, 703.6, 703.7, 703.8, 703.9, 704.0, 704.1, 704.2, 704.3, 704.4, 704.5, 704.6, 704.7, 704.8, 704.9, 705.0, 705.1, 705.2, 705.3, 705.4, 705.5, 705.6, 705.7, 705.8, 705.9, 706.0, 706.1, 706.2, 706.3, 706.4, 706.5, 706.6, 706.7, 706.8, 706.9, 707.0, 707.1, 707.2, 707.3, 707.4, 707.5, 707.6, 707.7, 707.8, 707.9, 708.0, 708.1, 708.2, 708.3, 708.4, 708.5, 708.6, 708.7, 708.8, 708.9, 709.0, 709.1, 709.2, 709.3, 709.4, 709.5, 709.6, 709.7, 709.8, 709.9, 710.0, 710.1, 710.2, 710.3, 710.4, 710.5, 710.6, 710.7, 710.8, 710.9, 711.0, 711.1, 711.2, 711.3, 711.4, 711.5, 711.6, 711.7, 711.8, 711.9, 712.0, 712.1, 712.2, 712.3, 712.4, 712.5, 712.6, 712.7, 712.8, 712.9, 713.0, 713.1, 713.2, 713.3, 713.4, 713.5, 713.6, 713.7, 713.8, 713.9, 714.0, 714.1, 714.2, 714.3, 714.4, 714.5, 714.6, 714.7, 714.8, 714.9, 715.0, 715.1, 715.2, 715.3
5.41e-05, 0.000101, 0.000184, 0.000328, 0.000574, 0.000982, 0.00165, 0.0027, 0.00434, 0.00684, 0.0105, 0.0159, 0.0235, 0.034, 0.0482, 0.0669, 0.091, 0.121, 0.158, 0.202, 0.253, 0.31, 0.373, 0.441, 0.51, 0.58, 0.647, 0.711, 0.768, 0.817, 0.859, 0.892, 0.918, 0.937, 0.952, 0.962, 0.97, 0.977, 0.983, 0.989, 0.993, 0.997, 0.999, 0.999, 0.998, 0.997, 0.994, 0.992, 0.991, 0.99, 0.991, 0.993, 0.995, 0.998, 0.999, 1.0, 0.999, 0.998, 0.995, 0.993, 0.991, 0.99, 0.99, 0.992, 0.994, 0.996, 0.998, 1.0, 1.0, 0.999, 0.996, 0.994, 0.992, 0.99, 0.99, 0.991, 0.992, 0.995, 0.997, 0.999, 1.0, 0.999, 0.997, 0.995, 0.993, 0.991, 0.99, 0.99, 0.991, 0.993, 0.996, 0.998, 0.999, 0.999, 0.998, 0.996, 0.994, 0.991, 0.99, 0.989, 0.99, 0.992, 0.994, 0.997, 0.998, 0.998, 0.997, 0.994, 0.991, 0.986, 0.98, 0.974, 0.967, 0.958, 0.946, 0.93, 0.909, 0.88, 0.844, 0.799, 0.747, 0.687, 0.622, 0.553, 0.483, 0.415, 0.349, 0.287, 0.232, 0.184, 0.143, 0.109, 0.0809, 0.059, 0.0421, 0.0295, 0.0202, 0.0135, 0.00889, 0.00572, 0.0036, 0.00222, 0.00134, 0.000793, 0.000459, 0.00026, 0.000144
c5
band1
412.433615778
405.2, 405.3, 405.4, 405.5, 405.6, 405.7, 405.8, 405.9, 406.0, 406.1, 406.2, 406.3, 406.4, 406.5, 406.6, 406.7, 406.8, 406.9, 407.0, 407.1, 407.2, 407.3, 407.4, 407.5, 407.6, 407.7, 407.8, 407.9, 408.0, 408.1, 408.2, 408.3, 408.4, 408.5, 408.6, 408.7, 408.8, 408.9, 409.0, 409.1, 409.2, 409.3, 409.4, 409.5, 409.6, 409.7, 409.8, 409.9, 410.0, 410.1, 410.2, 410.3, 410.4, 410.5, 410.6, 410.7, 410.8, 410.9, 411.0, 411.1, 411.2, 411.3, 411.4, 411.5, 411.6, 411.7, 411.8, 411.9, 412.0, 412.1, 412.2, 412.3, 412.4, 412.5, 412.6, 412.7, 412.8, 412.9, 413.0, 413.1, 413.2, 413.3, 413.4, 413.5, 413.6, 413.7, 413.8, 413.9, 414.0, 414.1, 414.2, 414.3, 414.4, 414.5, 414.6, 414.7, 414.8, 414.9, 415.0, 415.1, 415.2, 415.3, 415.4, 415.5, 415.6, 415.7, 415.8, 415.9, 416.0, 416.1, 416.2, 416.3, 416.4, 416.5, 416.6, 416.7, 416.8, 416.9, 417.0, 417.1, 417.2, 417.3, 417.4, 417.5, 417.6, 417.7, 417.8, 417.9, 418.0, 418.1, 418.2, 418.3, 418.4, 418.5, 418.6, 418.7, 418.8, 418.9, 419.0, 419.1, 419.2, 419.3, 419.4, 419.5, 419.6
7.69e-05, 0.000144, 0.000263, 0.000471, 0.000825, 0.00141, 0.00237, 0.00388, 0.00621, 0.00974, 0.0149, 0.0224, 0.0328, 0.0471, 0.0661, 0.0907, 0.122, 0.16, 0.206, 0.259, 0.319, 0.385, 0.455, 0.527, 0.599, 0.668, 0.731, 0.787, 0.835, 0.874, 0.904, 0.926, 0.942, 0.954, 0.962, 0.969, 0.975, 0.981, 0.986, 0.991, 0.994, 0.996, 0.996, 0.994, 0.991, 0.988, 0.986, 0.985, 0.985, 0.987, 0.989, 0.993, 0.995, 0.997, 0.997, 0.996, 0.994, 0.991, 0.988, 0.986, 0.986, 0.987, 0.989, 0.992, 0.995, 0.997, 0.998, 0.998, 0.996, 0.993, 0.99, 0.988, 0.987, 0.987, 0.989, 0.992, 0.995, 0.997, 0.999, 0.999, 0.998, 0.995, 0.992, 0.99, 0.988, 0.988, 0.989, 0.991, 0.994, 0.997, 0.999, 1.0, 0.999, 0.997, 0.994, 0.992, 0.989, 0.988, 0.989, 0.991, 0.994, 0.997, 0.999, 1.0, 0.999, 0.997, 0.993, 0.988, 0.983, 0.977, 0.97, 0.963, 0.953, 0.939, 0.92, 0.894, 0.86, 0.817, 0.765, 0.706, 0.64, 0.57, 0.498, 0.427, 0.359, 0.295, 0.238, 0.188, 0.145, 0.11, 0.0813, 0.0589, 0.0417, 0.029, 0.0196, 0.013, 0.00847, 0.00539, 0.00335, 0.00204, 0.00121, 0.000706, 0.000402, 0.000224, 0.000122
band10
753.123045597
747.0, 747.1, 747.2, 747.3, 747.4, 747.5, 747.6, 747.7, 747.8, 747.9, 748.0, 748.1, 748.2, 748.3, 748.4, 748.5, 748.6, 748.7, 748.8, 748.9, 749.0, 749.1, 749.2, 749.3, 749.4, 749.5, 749.6, 749.7, 749.8, 749.9, 750.0, 750.1, 750.2, 750.3, 750.4, 750.5, 750.6, 750.7, 750.8, 750.9, 751.0, 751.1, 751.2, 751.3, 751.4, 751.5, 751.6, 751.7, 751.8, 751.9, 752.0, 752.1, 752.2, 752.3, 752.4, 752.5, 752.6, 752.7, 752.8, 752.9, 753.0, 753.1, 753.2, 753.3, 753.4, 753.5, 753.6, 753.7, 753.8, 753.9, 754.0, 754.1, 754.2, 754.3, 754.4, 754.5, 754.6, 754.7, 754.8, 754.9, 755.0, 755.1, 755.2, 755.3, 755.4, 755.5, 755.6, 755.7, 755.8, 755.9, 756.0, 756.1, 756.2, 756.3, 756.4, 756.5, 756.6, 756.7, 756.8, 756.9, 757.0, 757.1, 757.2, 757.3, 757.4, 757.5, 757.6, 757.7, 757.8, 757.9, 758.0, 758.1, 758.2, 758.3, 758.4, 758.5, 758.6, 758.7, 758.8, 758.9, 759.0
5.18e-05, 9.7e-05, 0.000178, 0.000319, 0.00056, 0.000963, 0.00162, 0.00267, 0.00431, 0.0068, 0.0105, 0.0159, 0.0236, 0.0342, 0.0485, 0.0675, 0.0919, 0.123, 0.16, 0.205, 0.256, 0.315, 0.379, 0.447, 0.517, 0.587, 0.655, 0.718, 0.775, 0.824, 0.865, 0.897, 0.922, 0.94, 0.953, 0.963, 0.971, 0.978, 0.984, 0.989, 0.993, 0.997, 0.999, 0.999, 0.998, 0.996, 0.994, 0.991, 0.99, 0.989, 0.99, 0.992, 0.995, 0.998, 0.999, 1.0, 0.999, 0.997, 0.995, 0.992, 0.99, 0.989, 0.99, 0.991, 0.994, 0.996, 0.998, 1.0, 1.0, 0.998, 0.996, 0.993, 0.991, 0.989, 0.989, 0.99, 0.992, 0.995, 0.997, 0.999, 0.999, 0.998, 0.995, 0.991, 0.986, 0.98, 0.974, 0.967, 0.958, 0.946, 0.931, 0.909, 0.881, 0.844, 0.799, 0.746, 0.685, 0.619, 0.55, 0.479, 0.41, 0.344, 0.283, 0.228, 0.18, 0.139, 0.105, 0.078, 0.0567, 0.0403, 0.028, 0.0191, 0.0127, 0.00832, 0.00532, 0.00333, 0.00204, 0.00122, 0.000719, 0.000413, 0.000232
band11
760.007913967
755.8, 755.9, 756.0, 756.1, 756.2, 756.3, 756.4, 756.5, 756.6, 756.7, 756.8, 756.9, 757.0, 757.1, 757.2, 757.3, 757.4, 757.5, 757.6, 757.7, 757.8, 757.9, 758.0, 758.1, 758.2, 758.3, 758.4, 758.5, 758.6, 758.7, 758.8, 758.9, 759.0, 759.1, 759.2, 759.3, 759.4, 759.5, 759.6, 759.7, 759.8, 759.9, 760.0, 760.1, 760.2, 760.3, 760.4, 760.5, 760.6, 760.7, 760.8, 760.9, 761.0, 761.1, 761.2, 761.3, 761.4, 761.5, 761.6, 761.7, 761.8, 761.9, 762.0, 762.1, 762.2, 762.3, 762.4, 762.5, 762.6, 762.7, 762.8, 762.9, 763.0, 763.1, 763.2, 763.3, 763.4, 763.5, 763.6, 763.7, 763.8, 763.9, 764.0, 764.1
6.5e-05, 0.000121, 0.00022, 0.000392, 0.000683, 0.00117, 0.00195, 0.00319, 0.0051, 0.008, 0.0123, 0.0184, 0.0271, 0.0391, 0.0551, 0.076, 0.103, 0.136, 0.176, 0.224, 0.278, 0.339, 0.405, 0.474, 0.545, 0.614, 0.681, 0.742, 0.796, 0.842, 0.88, 0.909, 0.931, 0.947, 0.959, 0.968, 0.975, 0.981, 0.987, 0.992, 0.996, 0.999, 1.0, 0.999, 0.997, 0.993, 0.988, 0.982, 0.976, 0.969, 0.961, 0.949, 0.934, 0.913, 0.885, 0.849, 0.804, 0.751, 0.691, 0.625, 0.556, 0.485, 0.416, 0.349, 0.287, 0.232, 0.183, 0.142, 0.108, 0.0798, 0.058, 0.0413, 0.0288, 0.0196, 0.0131, 0.00857, 0.00549, 0.00344, 0.00211, 0.00127, 0.000744, 0.000428, 0.000241, 0.000133
band12
778.160657513
768.3, 768.4, 768.5, 768.6, 768.7, 768.8, 768.9, 769.0, 769.1, 769.2, 769.3, 769.4, 769.5, 769.6, 769.7, 769.8, 769.9, 770.0, 770.1, 770.2, 770.3, 770.4, 770.5, 770.6, 770.7, 770.8, 770.9, 771.0, 771.1, 771.2, 771.3, 771.4, 771.5, 771.6, 771.7, 771.8, 771.9, 772.0, 772.1, 772.2, 772.3, 772.4, 772.5, 772.6, 772.7, 772.8, 772.9, 773.0, 773.1, 773.2, 773.3, 773.4, 773.5, 773.6, 773.7, 773.8, 773.9, 774.0, 774.1, 774.2, 774.3, 774.4, 774.5, 774.6, 774.7, 774.8, 774.9, 775.0, 775.1, 775.2, 775.3, 775.4, 775.5, 775.6, 775.7, 775.8, 775.9, 776.0, 776.1, 776.2, 776.3, 776.4, 776.5, 776.6, 776.7, 776.8, 776.9, 777.0, 777.1, 777.2, 777.3, 777.4, 777.5, 777.6, 777.7, 777.8, 777.9, 778.0, 778.1, 778.2, 778.3, 778.4, 778.5, 778.6, 778.7, 778.8, 778.9, 779.0, 779.1, 779.2, 779.3, 779.4, 779.5, 779.6, 779.7, 779.8, 779.9, 780.0, 780.1, 780.2, 780.3, 780.4, 780.5, 780.6, 780.7, 780.8, 780.9, 781.0, 781.1, 781.2, 781.3, 781.4, 781.5, 781.6, 781.7, 781.8, 781.9, 782.0, 782.1, 782.2, 782.3, 782.4, 782.5, 782.6, 782.7, 782.8, 782.9, 783.0, 783.1, 783.2, 783.3, 783.4, 783.5, 783.6, 783.7, 783.8, 783.9, 784.0, 784.1, 784.2, 784.3, 784.4, 784.5, 784.6, 784.7, 784.8, 784.9, 785.0, 785.1, 785.2, 785.3, 785.4, 785.5, 785.6, 785.7, 785.8, 785.9, 786.0, 786.1, 786.2, 786.3, 786.4, 786.5, 786.6, 786.7, 786.8, 786.9, 787.0, 787.1, 787.2, 787.3, 787.4, 787.5, 787.6, 787.7, 787.8
5.62e-05, 0.000105, 0.000192, 0.000345, 0.000604, 0.00104, 0.00174, 0.00286, 0.00461, 0.00727, 0.0112, 0.0169, 0.025, 0.0362, 0.0513, 0.0711, 0.0965, 0.128, 0.167, 0.213, 0.266, 0.326, 0.391, 0.46, 0.53, 0.6, 0.668, 0.73, 0.786, 0.833, 0.872, 0.903, 0.926, 0.943, 0.956, 0.965, 0.972, 0.979, 0.984, 0.99, 0.994, 0.997, 0.999, 0.999, 0.998, 0.996, 0.993, 0.991, 0.989, 0.989, 0.99, 0.993, 0.995, 0.998, 1.0, 1.0, 0.999, 0.997, 0.994, 0.992, 0.99, 0.989, 0.989, 0.991, 0.994, 0.997, 0.999, 1.0, 1.0, 0.998, 0.996, 0.993, 0.99, 0.989, 0.989, 0.99, 0.992, 0.995, 0.998, 0.999, 1.0, 0.999, 0.997, 0.994, 0.991, 0.989, 0.989, 0.989, 0.991, 0.993, 0.996, 0.998, 1.0, 0.999, 0.998, 0.995, 0.993, 0.99, 0.989, 0.989, 0.99, 0.992, 0.995, 0.997, 0.999, 1.0, 0.999, 0.997, 0.994, 0.991, 0.989, 0.988, 0.989, 0.991, 0.993, 0.996, 0.998, 0.999, 0.999, 0.998, 0.995, 0.992, 0.99, 0.988, 0.988, 0.989, 0.992, 0.994, 0.997, 0.999, 0.999, 0.998, 0.996, 0.994, 0.991, 0.989, 0.988, 0.988, 0.99, 0.993, 0.995, 0.998, 0.999, 0.999, 0.998, 0.995, 0.992, 0.99, 0.988, 0.988, 0.989, 0.991, 0.994, 0.996, 0.998, 0.998, 0.997, 0.994, 0.99, 0.985, 0.979, 0.973, 0.966, 0.957, 0.946, 0.93, 0.909, 0.88, 0.843, 0.798, 0.744, 0.684, 0.617, 0.548, 0.477, 0.407, 0.341, 0.28, 0.225, 0.177, 0.137, 0.103, 0.0765, 0.0554, 0.0393, 0.0273, 0.0185, 0.0123, 0.00803, 0.00512, 0.00319, 0.00195, 0.00117, 0.000682, 0.000391, 0.000219
band13
864.627349057
852.3, 852.4, 852.5, 852.6, 852.7, 852.8, 852.9, 853.0, 853.1, 853.2, 853.3, 853.4, 853.5, 853.6, 853.7, 853.8, 853.9, 854.0, 854.1, 854.2, 854.3, 854.4, 854.5, 854.6, 854.7, 854.8, 854.9, 855.0, 855.1, 855.2, 855.3, 855.4, 855.5, 855.6, 855.7, 855.8, 855.9, 856.0, 856.1, 856.2, 856.3, 856.4, 856.5, 856.6, 856.7, 856.8, 856.9, 857.0, 857.1, 857.2, 857.3, 857.4, 857.5, 857.6, 857.7, 857.8, 857.9, 858.0, 858.1, 858.2, 858.3, 858.4, 858.5, 858.6, 858.7, 858.8, 858.9, 859.0, 859.1, 859.2, 859.3, 859.4, 859.5, 859.6, 859.7, 859.8, 859.9, 860.0, 860.1, 860.2, 860.3, 860.4, 860.5, 860.6, 860.7, 860.8, 860.9, 861.0, 861.1, 861.2, 861.3, 861.4, 861.5, 861.6, 861.7, 861.8, 861.9, 862.0, 862.1, 862.2, 862.3, 862.4, 862.5, 862.6, 862.7, 862.8, 862.9, 863.0, 863.1, 863.2, 863.3, 863.4, 863.5, 863.6, 863.7, 863.8, 863.9, 864.0, 864.1, 864.2, 864.3, 864.4, 864.5, 864.6, 864.7, 864.8, 864.9, 865.0, 865.1, 865.2, 865.3, 865.4, 865.5, 865.6, 865.7, 865.8, 865.9, 866.0, 866.1, 866.2, 866.3, 866.4, 866.5, 866.6, 866.7, 866.8, 866.9, 867.0, 867.1, 867.2, 867.3, 867.4, 867.5, 867.6, 867.7, 867.8, 867.9, 868.0, 868.1, 868.2, 868.3, 868.4, 868.5, 868.6, 868.7, 868.8, 868.9, 869.0, 869.1, 869.2, 869.3, 869.4, 869.5, 869.6, 869.7, 869.8, 869.9, 870.0, 870.1, 870.2, 870.3, 870.4, 870.5, 870.6, 870.7, 870.8, 870.9, 871.0, 871.1, 871.2, 871.3, 871.4, 871.5, 871.6, 871.7, 871.8, 871.9, 872.0, 872.1, 872.2, 872.3, 872.4, 872.5, 872.6, 872.7, 872.8, 872.9, 873.0, 873.1, 873.2, 873.3, 873.4, 873.5, 873.6, 873.7, 873.8, 873.9, 874.0, 874.1, 874.2, 874.3, 874.4, 874.5, 874.6, 874.7, 874.8, 874.9, 875.0, 875.1, 875.2, 875.3, 875.4, 875.5, 875.6, 875.7, 875.8, 875.9, 876.0, 876.1, 876.2, 876.3, 876.4, 876.5, 876.6, 876.7, 876.8
7.01e-05, 0.000131, 0.000238, 0.000425, 0.000742, 0.00127, 0.00212, 0.00347, 0.00555, 0.00869, 0.0133, 0.02, 0.0294, 0.0422, 0.0594, 0.0818, 0.11, 0.146, 0.188, 0.238, 0.295, 0.358, 0.425, 0.496, 0.567, 0.637, 0.703, 0.762, 0.814, 0.857, 0.891, 0.918, 0.937, 0.951, 0.961, 0.969, 0.975, 0.981, 0.987, 0.992, 0.996, 0.998, 0.999, 0.999, 0.997, 0.994, 0.991, 0.989, 0.988, 0.989, 0.991, 0.994, 0.996, 0.999, 1.0, 1.0, 0.998, 0.995, 0.992, 0.99, 0.988, 0.988, 0.989, 0.992, 0.995, 0.998, 0.999, 1.0, 0.999, 0.997, 0.994, 0.991, 0.989, 0.988, 0.988, 0.99, 0.993, 0.996, 0.998, 1.0, 1.0, 0.998, 0.995, 0.992, 0.99, 0.988, 0.988, 0.989, 0.991, 0.994, 0.997, 0.999, 1.0, 0.999, 0.997, 0.994, 0.991, 0.989, 0.988, 0.988, 0.99, 0.993, 0.996, 0.998, 1.0, 1.0, 0.998, 0.995, 0.992, 0.99, 0.988, 0.988, 0.989, 0.991, 0.994, 0.997, 0.999, 1.0, 0.999, 0.997, 0.994, 0.991, 0.989, 0.988, 0.988, 0.99, 0.992, 0.995, 0.998, 0.999, 0.999, 0.998, 0.996, 0.993, 0.99, 0.988, 0.987, 0.988, 0.991, 0.994, 0.996, 0.999, 0.999, 0.999, 0.997, 0.994, 0.991, 0.989, 0.987, 0.988, 0.989, 0.992, 0.995, 0.997, 0.999, 0.999, 0.998, 0.996, 0.993, 0.99, 0.988, 0.987, 0.988, 0.99, 0.993, 0.996, 0.998, 0.999, 0.999, 0.997, 0.994, 0.991, 0.989, 0.987, 0.987, 0.989, 0.991, 0.994, 0.997, 0.999, 0.999, 0.998, 0.996, 0.993, 0.99, 0.988, 0.987, 0.988, 0.99, 0.993, 0.996, 0.998, 0.999, 0.999, 0.997, 0.994, 0.991, 0.989, 0.987, 0.987, 0.988, 0.991, 0.994, 0.996, 0.998, 0.998, 0.997, 0.993, 0.989, 0.983, 0.978, 0.972, 0.965, 0.956, 0.945, 0.929, 0.907, 0.878, 0.84, 0.793, 0.738, 0.676, 0.609, 0.538, 0.467, 0.397, 0.331, 0.27, 0.216, 0.169, 0.13, 0.0975, 0.0717, 0.0516, 0.0363, 0.025, 0.0169, 0.0111, 0.0072, 0.00455, 0.00281, 0.0017, 0.00101, 0.000585, 0.000331, 0.000184
band14
884.697163697
877.4, 877.5, 877.6, 877.7, 877.8, 877.9, 878.0, 878.1, 878.2, 878.3, 878.4, 878.5, 878.6, 878.7, 878.8, 878.9, 879.0, 879.1, 879.2, 879.3, 879.4, 879.5, 879.6, 879.7, 879.8, 879.9, 880.0, 880.1, 880.2, 880.3, 880.4, 880.5, 880.6, 880.7, 880.8, 880.9, 881.0, 881.1, 881.2, 881.3, 881.4, 881.5, 881.6, 881.7, 881.8, 881.9, 882.0, 882.1, 882.2, 882.3, 882.4, 882.5, 882.6, 882.7, 882.8, 882.9, 883.0, 883.1, 883.2, 883.3, 883.4, 883.5, 883.6, 883.7, 883.8, 883.9, 884.0, 884.1, 884.2, 884.3, 884.4, 884.5, 884.6, 884.7, 884.8, 884.9, 885.0, 885.1, 885.2, 885.3, 885.4, 885.5, 885.6, 885.7, 885.8, 885.9, 886.0, 886.1, 886.2, 886.3, 886.4, 886.5, 886.6, 886.7, 886.8, 886.9, 887.0, 887.1, 887.2, 887.3, 887.4, 887.5, 887.6, 887.7, 887.8, 887.9, 888.0, 888.1, 888.2, 888.3, 888.4, 888.5, 888.6, 888.7, 888.8, 888.9, 889.0, 889.1, 889.2, 889.3, 889.4, 889.5, 889.6, 889.7, 889.8, 889.9, 890.0, 890.1, 890.2, 890.3, 890.4, 890.5, 890.6, 890.7, 890.8, 890.9, 891.0, 891.1, 891.2, 891.3, 891.4, 891.5, 891.6, 891.7, 891.8, 891.9
7.63e-05, 0.000142, 0.000258, 0.00046, 0.000801, 0.00136, 0.00228, 0.00371, 0.00593, 0.00927, 0.0142, 0.0212, 0.0311, 0.0446, 0.0625, 0.0859, 0.115, 0.152, 0.196, 0.247, 0.305, 0.369, 0.437, 0.508, 0.58, 0.649, 0.714, 0.772, 0.822, 0.864, 0.897, 0.922, 0.94, 0.953, 0.962, 0.97, 0.976, 0.982, 0.988, 0.993, 0.996, 0.999, 0.999, 0.998, 0.996, 0.993, 0.99, 0.988, 0.988, 0.989, 0.991, 0.994, 0.997, 0.999, 1.0, 0.999, 0.998, 0.995, 0.992, 0.989, 0.988, 0.988, 0.989, 0.992, 0.995, 0.998, 1.0, 1.0, 0.999, 0.996, 0.993, 0.99, 0.988, 0.988, 0.988, 0.99, 0.993, 0.996, 0.999, 1.0, 0.999, 0.998, 0.995, 0.992, 0.989, 0.988, 0.988, 0.989, 0.992, 0.995, 0.997, 0.999, 1.0, 0.999, 0.996, 0.993, 0.99, 0.988, 0.987, 0.988, 0.99, 0.993, 0.996, 0.998, 0.999, 0.998, 0.996, 0.992, 0.987, 0.981, 0.975, 0.969, 0.962, 0.952, 0.939, 0.92, 0.895, 0.862, 0.82, 0.769, 0.711, 0.646, 0.576, 0.505, 0.434, 0.366, 0.302, 0.244, 0.193, 0.15, 0.114, 0.0845, 0.0615, 0.0438, 0.0305, 0.0208, 0.0139, 0.00905, 0.00578, 0.00361, 0.00221, 0.00132, 0.000776, 0.000445, 0.000249, 0.000137
band15
899.753104609
892.4, 892.5, 892.6, 892.7, 892.8, 892.9, 893.0, 893.1, 893.2, 893.3, 893.4, 893.5, 893.6, 893.7, 893.8, 893.9, 894.0, 894.1, 894.2, 894.3, 894.4, 894.5, 894.6, 894.7, 894.8, 894.9, 895.0, 895.1, 895.2, 895.3, 895.4, 895.5, 895.6, 895.7, 895.8, 895.9, 896.0, 896.1, 896.2, 896.3, 896.4, 896.5, 896.6, 896.7, 896.8, 896.9, 897.0, 897.1, 897.2, 897.3, 897.4, 897.5, 897.6, 897.7, 897.8, 897.9, 898.0, 898.1, 898.2, 898.3, 898.4, 898.5, 898.6, 898.7, 898.8, 898.9, 899.0, 899.1, 899.2, 899.3, 899.4, 899.5, 899.6, 899.7, 899.8, 899.9, 900.0, 900.1, 900.2, 900.3, 900.4, 900.5, 900.6, 900.7, 900.8, 900.9, 901.0, 901.1, 901.2, 901.3, 901.4, 901.5, 901.6, 901.7, 901.8, 901.9, 902.0, 902.1, 902.2, 902.3, 902.4, 902.5, 902.6, 902.7, 902.8, 902.9, 903.0, 903.1, 903.2, 903.3, 903.4, 903.5, 903.6, 903.7, 903.8, 903.9, 904.0, 904.1, 904.2, 904.3, 904.4, 904.5, 904.6, 904.7, 904.8, 904.9, 905.0, 905.1, 905.2, 905.3, 905.4, 905.5, 905.6, 905.7, 905.8, 905.9, 906.0, 906.1, 906.2, 906.3, 906.4, 906.5, 906.6, 906.7, 906.8, 906.9
5.3e-05, 9.97e-05, 0.000184, 0.000331, 0.000585, 0.00101, 0.00171, 0.00282, 0.00456, 0.00722, 0.0112, 0.017, 0.0252, 0.0365, 0.0519, 0.0721, 0.0981, 0.131, 0.17, 0.218, 0.272, 0.333, 0.399, 0.469, 0.541, 0.612, 0.679, 0.741, 0.796, 0.843, 0.88, 0.909, 0.931, 0.947, 0.958, 0.966, 0.973, 0.979, 0.985, 0.99, 0.994, 0.998, 0.999, 0.999, 0.997, 0.995, 0.992, 0.989, 0.988, 0.988, 0.989, 0.992, 0.995, 0.998, 1.0, 1.0, 0.999, 0.996, 0.993, 0.99, 0.988, 0.988, 0.988, 0.99, 0.993, 0.996, 0.999, 1.0, 1.0, 0.998, 0.995, 0.992, 0.989, 0.988, 0.988, 0.989, 0.992, 0.995, 0.998, 0.999, 1.0, 0.999, 0.996, 0.993, 0.99, 0.988, 0.987, 0.988, 0.99, 0.993, 0.996, 0.998, 1.0, 0.999, 0.998, 0.995, 0.992, 0.989, 0.988, 0.987, 0.989, 0.991, 0.994, 0.997, 0.999, 0.999, 0.997, 0.994, 0.99, 0.984, 0.979, 0.973, 0.966, 0.958, 0.947, 0.932, 0.911, 0.882, 0.846, 0.8, 0.746, 0.684, 0.617, 0.546, 0.474, 0.404, 0.337, 0.276, 0.221, 0.173, 0.133, 0.1, 0.0737, 0.0531, 0.0374, 0.0258, 0.0174, 0.0115, 0.00743, 0.0047, 0.00291, 0.00176, 0.00104, 0.000605, 0.000343, 0.000191
band2
442.302283223
435.0, 435.1, 435.2, 435.3, 435.4, 435.5, 435.6, 435.7, 435.8, 435.9, 436.0, 436.1, 436.2, 436.3, 436.4, 436.5, 436.6, 436.7, 436.8, 436.9, 437.0, 437.1, 437.2, 437.3, 437.4, 437.5, 437.6, 437.7, 437.8, 437.9, 438.0, 438.1, 438.2, 438.3, 438.4, 438.5, 438.6, 438.7, 438.8, 438.9, 439.0, 439.1, 439.2, 439.3, 439.4, 439.5, 439.6, 439.7, 439.8, 439.9, 440.0, 440.1, 440.2, 440.3, 440.4, 440.5, 440.6, 440.7, 440.8, 440.9, 441.0, 441.1, 441.2, 441.3, 441.4, 441.5, 441.6, 441.7, 441.8, 441.9, 442.0, 442.1, 442.2, 442.3, 442.4, 442.5, 442.6, 442.7, 442.8, 442.9, 443.0, 443.1, 443.2, 443.3, 443.4, 443.5, 443.6, 443.7, 443.8, 443.9, 444.0, 444.1, 444.2, 444.3, 444.4, 444.5, 444.6, 444.7, 444.8, 444.9, 445.0, 445.1, 445.2, 445.3, 445.4, 445.5, 445.6, 445.7, 445.8, 445.9, 446.0, 446.1, 446.2, 446.3, 446.4, 446.5, 446.6, 446.7, 446.8, 446.9, 447.0, 447.1, 447.2, 447.3, 447.4, 447.5, 447.6, 447.7, 447.8, 447.9, 448.0, 448.1, 448.2, 448.3, 448.4, 448.5, 448.6, 448.7, 448.8, 448.9, 449.0, 449.1, 449.2, 449.3, 449.4, 449.5
7.03e-05, 0.00013, 0.000236, 0.00042, 0.00073, 0.00124, 0.00207, 0.00338, 0.0054, 0.00844, 0.0129, 0.0193, 0.0284, 0.0407, 0.0572, 0.0788, 0.106, 0.14, 0.181, 0.229, 0.284, 0.345, 0.411, 0.481, 0.551, 0.62, 0.685, 0.745, 0.798, 0.843, 0.879, 0.908, 0.929, 0.945, 0.957, 0.965, 0.972, 0.979, 0.984, 0.989, 0.993, 0.996, 0.997, 0.997, 0.995, 0.993, 0.99, 0.989, 0.988, 0.989, 0.99, 0.993, 0.995, 0.997, 0.998, 0.998, 0.997, 0.995, 0.992, 0.99, 0.989, 0.989, 0.99, 0.992, 0.995, 0.997, 0.999, 0.999, 0.998, 0.996, 0.994, 0.992, 0.99, 0.989, 0.99, 0.992, 0.994, 0.997, 0.999, 0.999, 0.999, 0.998, 0.996, 0.993, 0.991, 0.99, 0.99, 0.991, 0.994, 0.996, 0.998, 1.0, 1.0, 0.999, 0.997, 0.995, 0.992, 0.991, 0.99, 0.991, 0.993, 0.995, 0.998, 0.999, 1.0, 0.999, 0.996, 0.992, 0.987, 0.982, 0.975, 0.968, 0.959, 0.947, 0.931, 0.909, 0.88, 0.843, 0.798, 0.745, 0.685, 0.619, 0.55, 0.48, 0.411, 0.345, 0.284, 0.23, 0.182, 0.141, 0.107, 0.0794, 0.0578, 0.0412, 0.0288, 0.0197, 0.0132, 0.00863, 0.00554, 0.00348, 0.00214, 0.00129, 0.00076, 0.000439, 0.000248, 0.000137
band3
489.626577523
482.3, 482.4, 482.5, 482.6, 482.7, 482.8, 482.9, 483.0, 483.1, 483.2, 483.3, 483.4, 483.5, 483.6, 483.7, 483.8, 483.9, 484.0, 484.1, 484.2, 484.3, 484.4, 484.5, 484.6, 484.7, 484.8, 484.9, 485.0, 485.1, 485.2, 485.3, 485.4, 485.5, 485.6, 485.7, 485.8, 485.9, 486.0, 486.1, 486.2, 486.3, 486.4, 486.5, 486.6, 486.7, 486.8, 486.9, 487.0, 487.1, 487.2, 487.3, 487.4, 487.5, 487.6, 487.7, 487.8, 487.9, 488.0, 488.1, 488.2, 488.3, 488.4, 488.5, 488.6, 488.7, 488.8, 488.9, 489.0, 489.1, 489.2, 489.3, 489.4, 489.5, 489.6, 489.7, 489.8, 489.9, 490.0, 490.1, 490.2, 490.3, 490.4, 490.5, 490.6, 490.7, 490.8, 490.9, 491.0, 491.1, 491.2, 491.3, 491.4, 491.5, 491.6, 491.7, 491.8, 491.9, 492.0, 492.1, 492.2, 492.3, 492.4, 492.5, 492.6, 492.7, 492.8, 492.9, 493.0, 493.1, 493.2, 493.3, 493.4, 493.5, 493.6, 493.7, 493.8, 493.9, 494.0, 494.1, 494.2, 494.3, 494.4, 494.5, 494.6, 494.7, 494.8, 494.9, 495.0, 495.1, 495.2, 495.3, 495.4, 495.5, 495.6, 495.7, 495.8, 495.9, 496.0, 496.1, 496.2, 496.3, 496.4, 496.5, 496.6, 496.7, 496.8, 496.9
8.29e-05, 0.000151, 0.00027, 0.000473, 0.00081, 0.00136, 0.00224, 0.00361, 0.00569, 0.0088, 0.0133, 0.0198, 0.0288, 0.041, 0.0572, 0.0783, 0.105, 0.138, 0.177, 0.224, 0.277, 0.336, 0.4, 0.467, 0.536, 0.604, 0.668, 0.729, 0.782, 0.829, 0.867, 0.898, 0.922, 0.94, 0.954, 0.964, 0.972, 0.979, 0.985, 0.99, 0.994, 0.996, 0.998, 0.998, 0.997, 0.995, 0.993, 0.992, 0.991, 0.991, 0.992, 0.994, 0.996, 0.998, 0.999, 0.999, 0.998, 0.997, 0.995, 0.993, 0.991, 0.991, 0.992, 0.994, 0.996, 0.998, 0.999, 1.0, 0.999, 0.998, 0.996, 0.994, 0.992, 0.991, 0.992, 0.993, 0.995, 0.997, 0.999, 1.0, 1.0, 0.999, 0.997, 0.995, 0.993, 0.992, 0.992, 0.993, 0.994, 0.996, 0.998, 1.0, 1.0, 0.999, 0.998, 0.996, 0.994, 0.993, 0.992, 0.992, 0.993, 0.995, 0.997, 0.999, 0.999, 0.998, 0.996, 0.993, 0.989, 0.983, 0.977, 0.97, 0.96, 0.948, 0.933, 0.912, 0.884, 0.85, 0.807, 0.757, 0.7, 0.637, 0.57, 0.502, 0.434, 0.368, 0.307, 0.251, 0.201, 0.158, 0.121, 0.0915, 0.0677, 0.049, 0.0348, 0.0242, 0.0165, 0.011, 0.00721, 0.00462, 0.0029, 0.00179, 0.00108, 0.000636, 0.000368, 0.000209, 0.000116
band4
509.564329959
502.2, 502.3, 502.4, 502.5, 502.6, 502.7, 502.8, 502.9, 503.0, 503.1, 503.2, 503.3, 503.4, 503.5, 503.6, 503.7, 503.8, 503.9, 504.0, 504.1, 504.2, 504.3, 504.4, 504.5, 504.6, 504.7, 504.8, 504.9, 505.0, 505.1, 505.2, 505.3, 505.4, 505.5, 505.6, 505.7, 505.8, 505.9, 506.0, 506.1, 506.2, 506.3, 506.4, 506.5, 506.6, 506.7, 506.8, 506.9, 507.0, 507.1, 507.2, 507.3, 507.4, 507.5, 507.6, 507.7, 507.8, 507.9, 508.0, 508.1, 508.2, 508.3, 508.4, 508.5, 508.6, 508.7, 508.8, 508.9, 509.0, 509.1, 509.2, 509.3, 509.4, 509.5, 509.6, 509.7, 509.8, 509.9, 510.0, 510.1, 510.2, 510.3, 510.4, 510.5, 510.6, 510.7, 510.8, 510.9, 511.0, 511.1, 511.2, 511.3, 511.4, 511.5, 511.6, 511.7, 511.8, 511.9, 512.0, 512.1, 512.2, 512.3, 512.4, 512.5, 512.6, 512.7, 512.8, 512.9, 513.0, 513.1, 513.2, 513.3, 513.4, 513.5, 513.6, 513.7, 513.8, 513.9, 514.0, 514.1, 514.2, 514.3, 514.4, 514.5, 514.6, 514.7, 514.8, 514.9, 515.0, 515.1, 515.2, 515.3, 515.4, 515.5, 515.6, 515.7, 515.8, 515.9, 516.0, 516.1, 516.2, 516.3, 516.4, 516.5, 516.6, 516.7, 516.8
7.05e-05, 0.000129, 0.000231, 0.000406, 0.000698, 0.00118, 0.00194, 0.00314, 0.00498, 0.00774, 0.0118, 0.0176, 0.0257, 0.0368, 0.0516, 0.0709, 0.0955, 0.126, 0.163, 0.207, 0.258, 0.315, 0.377, 0.443, 0.511, 0.579, 0.645, 0.707, 0.763, 0.812, 0.853, 0.887, 0.914, 0.934, 0.949, 0.961, 0.97, 0.977, 0.983, 0.988, 0.993, 0.996, 0.998, 0.998, 0.998, 0.996, 0.995, 0.993, 0.992, 0.992, 0.992, 0.994, 0.996, 0.998, 0.999, 1.0, 0.999, 0.998, 0.996, 0.994, 0.992, 0.992, 0.992, 0.993, 0.995, 0.997, 0.999, 1.0, 1.0, 0.999, 0.997, 0.995, 0.993, 0.992, 0.992, 0.993, 0.994, 0.996, 0.998, 1.0, 1.0, 0.999, 0.998, 0.996, 0.994, 0.993, 0.992, 0.992, 0.994, 0.996, 0.998, 0.999, 1.0, 1.0, 0.999, 0.997, 0.995, 0.993, 0.992, 0.992, 0.993, 0.995, 0.997, 0.998, 0.999, 0.999, 0.997, 0.994, 0.99, 0.985, 0.979, 0.973, 0.964, 0.953, 0.939, 0.92, 0.895, 0.863, 0.824, 0.777, 0.723, 0.662, 0.597, 0.53, 0.462, 0.395, 0.332, 0.273, 0.221, 0.175, 0.136, 0.104, 0.0774, 0.0567, 0.0406, 0.0286, 0.0197, 0.0133, 0.00878, 0.00569, 0.00361, 0.00225, 0.00137, 0.000819, 0.000479, 0.000275, 0.000154
band5
559.440262161
552.1, 552.2, 552.3, 552.4, 552.5, 552.6, 552.7, 552.8, 552.9, 553.0, 553.1, 553.2, 553.3, 553.4, 553.5, 553.6, 553.7, 553.8, 553.9, 554.0, 554.1, 554.2, 554.3, 554.4, 554.5, 554.6, 554.7, 554.8, 554.9, 555.0, 555.1, 555.2, 555.3, 555.4, 555.5, 555.6, 555.7, 555.8, 555.9, 556.0, 556.1, 556.2, 556.3, 556.4, 556.5, 556.6, 556.7, 556.8, 556.9, 557.0, 557.1, 557.2, 557.3, 557.4, 557.5, 557.6, 557.7, 557.8, 557.9, 558.0, 558.1, 558.2, 558.3, 558.4, 558.5, 558.6, 558.7, 558.8, 558.9, 559.0, 559.1, 559.2, 559.3, 559.4, 559.5, 559.6, 559.7, 559.8, 559.9, 560.0, 560.1, 560.2, 560.3, 560.4, 560.5, 560.6, 560.7, 560.8, 560.9, 561.0, 561.1, 561.2, 561.3, 561.4, 561.5, 561.6, 561.7, 561.8, 561.9, 562.0, 562.1, 562.2, 562.3, 562.4, 562.5, 562.6, 562.7, 562.8, 562.9, 563.0, 563.1, 563.2, 563.3, 563.4, 563.5, 563.6, 563.7, 563.8, 563.9, 564.0, 564.1, 564.2, 564.3, 564.4, 564.5, 564.6, 564.7, 564.8, 564.9, 565.0, 565.1, 565.2, 565.3, 565.4, 565.5, 565.6, 565.7, 565.8, 565.9, 566.0, 566.1, 566.2, 566.3, 566.4, 566.5, 566.6, 566.7
8.71e-05, 0.000158, 0.000281, 0.000489, 0.000834, 0.00139, 0.00228, 0.00366, 0.00576, 0.00888, 0.0134, 0.0198, 0.0288, 0.0409, 0.057, 0.0778, 0.104, 0.137, 0.176, 0.221, 0.274, 0.332, 0.395, 0.462, 0.53, 0.597, 0.662, 0.722, 0.776, 0.824, 0.863, 0.895, 0.92, 0.939, 0.953, 0.964, 0.972, 0.979, 0.985, 0.99, 0.994, 0.997, 0.999, 0.999, 0.998, 0.997, 0.995, 0.993, 0.992, 0.992, 0.993, 0.995, 0.997, 0.999, 1.0, 1.0, 0.999, 0.998, 0.996, 0.994, 0.993, 0.992, 0.993, 0.994, 0.996, 0.998, 0.999, 1.0, 1.0, 0.998, 0.997, 0.995, 0.993, 0.992, 0.992, 0.993, 0.995, 0.997, 0.999, 1.0, 1.0, 0.999, 0.997, 0.996, 0.994, 0.992, 0.992, 0.993, 0.994, 0.996, 0.998, 0.999, 1.0, 0.999, 0.998, 0.996, 0.994, 0.993, 0.992, 0.992, 0.993, 0.995, 0.997, 0.998, 0.999, 0.998, 0.996, 0.993, 0.989, 0.984, 0.978, 0.971, 0.962, 0.95, 0.935, 0.915, 0.889, 0.856, 0.815, 0.767, 0.711, 0.65, 0.585, 0.517, 0.449, 0.383, 0.321, 0.263, 0.212, 0.168, 0.13, 0.0987, 0.0734, 0.0536, 0.0383, 0.0269, 0.0184, 0.0124, 0.00819, 0.00529, 0.00335, 0.00208, 0.00126, 0.000753, 0.00044, 0.000252, 0.000141
band6
619.349162711
612.0, 612.1, 612.2, 612.3, 612.4, 612.5, 612.6, 612.7, 612.8, 612.9, 613.0, 613.1, 613.2, 613.3, 613.4, 613.5, 613.6, 613.7, 613.8, 613.9, 614.0, 614.1, 614.2, 614.3, 614.4, 614.5, 614.6, 614.7, 614.8, 614.9, 615.0, 615.1, 615.2, 615.3, 615.4, 615.5, 615.6, 615.7, 615.8, 615.9, 616.0, 616.1, 616.2, 616.3, 616.4, 616.5, 616.6, 616.7, 616.8, 616.9, 617.0, 617.1, 617.2, 617.3, 617.4, 617.5, 617.6, 617.7, 617.8, 617.9, 618.0, 618.1, 618.2, 618.3, 618.4, 618.5, 618.6, 618.7, 618.8, 618.9, 619.0, 619.1, 619.2, 619.3, 619.4, 619.5, 619.6, 619.7, 619.8, 619.9, 620.0, 620.1, 620.2, 620.3, 620.4, 620.5, 620.6, 620.7, 620.8, 620.9, 621.0, 621.1, 621.2, 621.3, 621.4, 621.5, 621.6, 621.7, 621.8, 621.9, 622.0, 622.1, 622.2, 622.3, 622.4, 622.5, 622.6, 622.7, 622.8, 622.9, 623.0, 623.1, 623.2, 623.3, 623.4, 623.5, 623.6, 623.7, 623.8, 623.9, 624.0, 624.1, 624.2, 624.3, 624.4, 624.5, 624.6, 624.7, 624.8, 624.9, 625.0, 625.1, 625.2, 625.3, 625.4, 625.5, 625.6, 625.7, 625.8, 625.9, 626.0, 626.1, 626.2, 626.3, 626.4, 626.5, 626.6
7.8e-05, 0.000142, 0.000255, 0.000446, 0.000766, 0.00129, 0.00212, 0.00342, 0.00541, 0.00838, 0.0127, 0.0189, 0.0276, 0.0393, 0.055, 0.0754, 0.101, 0.133, 0.172, 0.218, 0.27, 0.328, 0.391, 0.458, 0.527, 0.595, 0.66, 0.721, 0.776, 0.823, 0.863, 0.895, 0.92, 0.939, 0.953, 0.964, 0.972, 0.979, 0.985, 0.99, 0.994, 0.997, 0.999, 0.999, 0.998, 0.997, 0.995, 0.993, 0.992, 0.992, 0.993, 0.995, 0.997, 0.999, 1.0, 1.0, 0.999, 0.998, 0.996, 0.994, 0.992, 0.992, 0.992, 0.993, 0.995, 0.997, 0.999, 1.0, 1.0, 0.998, 0.996, 0.994, 0.993, 0.991, 0.991, 0.992, 0.994, 0.996, 0.998, 0.999, 1.0, 0.999, 0.997, 0.995, 0.993, 0.992, 0.991, 0.992, 0.993, 0.995, 0.997, 0.999, 1.0, 0.999, 0.998, 0.996, 0.994, 0.992, 0.991, 0.991, 0.992, 0.994, 0.996, 0.997, 0.998, 0.998, 0.996, 0.993, 0.989, 0.984, 0.978, 0.971, 0.963, 0.952, 0.938, 0.92, 0.895, 0.863, 0.823, 0.776, 0.721, 0.66, 0.595, 0.527, 0.458, 0.391, 0.328, 0.27, 0.217, 0.172, 0.133, 0.101, 0.0752, 0.0549, 0.0392, 0.0275, 0.0188, 0.0127, 0.00833, 0.00537, 0.0034, 0.0021, 0.00128, 0.000758, 0.000441, 0.000252, 0.000141
band7
664.322430724
657.0, 657.1, 657.2, 657.3, 657.4, 657.5, 657.6, 657.7, 657.8, 657.9, 658.0, 658.1, 658.2, 658.3, 658.4, 658.5, 658.6, 658.7, 658.8, 658.9, 659.0, 659.1, 659.2, 659.3, 659.4, 659.5, 659.6, 659.7, 659.8, 659.9, 660.0, 660.1, 660.2, 660.3, 660.4, 660.5, 660.6, 660.7, 660.8, 660.9, 661.0, 661.1, 661.2, 661.3, 661.4, 661.5, 661.6, 661.7, 661.8, 661.9, 662.0, 662.1, 662.2, 662.3, 662.4, 662.5, 662.6, 662.7, 662.8, 662.9, 663.0, 663.1, 663.2, 663.3, 663.4, 663.5, 663.6, 663.7, 663.8, 663.9, 664.0, 664.1, 664.2, 664.3, 664.4, 664.5, 664.6, 664.7, 664.8, 664.9, 665.0, 665.1, 665.2, 665.3, 665.4, 665.5, 665.6, 665.7, 665.8, 665.9, 666.0, 666.1, 666.2, 666.3, 666.4, 666.5, 666.6, 666.7, 666.8, 666.9, 667.0, 667.1, 667.2, 667.3, 667.4, 667.5, 667.6, 667.7, 667.8, 667.9, 668.0, 668.1, 668.2, 668.3, 668.4, 668.5, 668.6, 668.7, 668.8, 668.9, 669.0, 669.1, 669.2, 669.3, 669.4, 669.5, 669.6, 669.7, 669.8, 669.9, 670.0, 670.1, 670.2, 670.3, 670.4, 670.5, 670.6, 670.7, 670.8, 670.9, 671.0, 671.1, 671.2, 671.3, 671.4, 671.5, 671.6
8.46e-05, 0.000155, 0.000277, 0.000485, 0.000833, 0.0014, 0.00231, 0.00372, 0.00588, 0.0091, 0.0138, 0.0205, 0.0298, 0.0424, 0.0592, 0.081, 0.108, 0.142, 0.183, 0.231, 0.285, 0.345, 0.41, 0.479, 0.548, 0.616, 0.681, 0.74, 0.793, 0.839, 0.876, 0.905, 0.928, 0.945, 0.957, 0.967, 0.974, 0.981, 0.987, 0.991, 0.995, 0.998, 0.999, 0.999, 0.998, 0.996, 0.994, 0.992, 0.991, 0.991, 0.993, 0.995, 0.997, 0.999, 1.0, 1.0, 0.999, 0.997, 0.995, 0.993, 0.991, 0.991, 0.992, 0.994, 0.996, 0.998, 0.999, 1.0, 0.999, 0.998, 0.996, 0.993, 0.992, 0.991, 0.991, 0.992, 0.994, 0.997, 0.999, 1.0, 1.0, 0.998, 0.996, 0.994, 0.992, 0.991, 0.99, 0.991, 0.993, 0.995, 0.997, 0.999, 1.0, 0.999, 0.997, 0.995, 0.993, 0.991, 0.99, 0.991, 0.992, 0.994, 0.996, 0.998, 0.998, 0.998, 0.996, 0.992, 0.988, 0.983, 0.977, 0.97, 0.961, 0.95, 0.936, 0.916, 0.89, 0.857, 0.815, 0.766, 0.709, 0.647, 0.58, 0.511, 0.442, 0.375, 0.312, 0.255, 0.204, 0.16, 0.123, 0.0927, 0.0684, 0.0495, 0.035, 0.0243, 0.0165, 0.011, 0.00716, 0.00457, 0.00286, 0.00175, 0.00105, 0.000617, 0.000355, 0.0002, 0.00011
band8
680.571670334
674.5, 674.6, 674.7, 674.8, 674.9, 675.0, 675.1, 675.2, 675.3, 675.4, 675.5, 675.6, 675.7, 675.8, 675.9, 676.0, 676.1, 676.2, 676.3, 676.4, 676.5, 676.6, 676.7, 676.8, 676.9, 677.0, 677.1, 677.2, 677.3, 677.4, 677.5, 677.6, 677.7, 677.8, 677.9, 678.0, 678.1, 678.2, 678.3, 678.4, 678.5, 678.6, 678.7, 678.8, 678.9, 679.0, 679.1, 679.2, 679.3, 679.4, 679.5, 679.6, 679.7, 679.8, 679.9, 680.0, 680.1, 680.2, 680.3, 680.4, 680.5, 680.6, 680.7, 680.8, 680.9, 681.0, 681.1, 681.2, 681.3, 681.4, 681.5, 681.6, 681.7, 681.8, 681.9, 682.0, 682.1, 682.2, 682.3, 682.4, 682.5, 682.6, 682.7, 682.8, 682.9, 683.0, 683.1, 683.2, 683.3, 683.4, 683.5, 683.6, 683.7, 683.8, 683.9, 684.0, 684.1, 684.2, 684.3, 684.4, 684.5, 684.6, 684.7, 684.8, 684.9, 685.0, 685.1, 685.2, 685.3, 685.4, 685.5, 685.6, 685.7, 685.8, 685.9, 686.0, 686.1, 686.2, 686.3, 686.4, 686.5, 686.6
8.22e-05, 0.000151, 0.00027, 0.000475, 0.000817, 0.00138, 0.00227, 0.00367, 0.00581, 0.00901, 0.0137, 0.0203, 0.0296, 0.0423, 0.0591, 0.0808, 0.108, 0.142, 0.183, 0.231, 0.286, 0.346, 0.412, 0.48, 0.55, 0.618, 0.683, 0.743, 0.795, 0.841, 0.878, 0.907, 0.929, 0.946, 0.958, 0.967, 0.975, 0.981, 0.987, 0.991, 0.995, 0.998, 0.999, 0.999, 0.998, 0.996, 0.993, 0.992, 0.991, 0.991, 0.992, 0.995, 0.997, 0.999, 1.0, 1.0, 0.999, 0.997, 0.994, 0.992, 0.991, 0.991, 0.991, 0.993, 0.996, 0.998, 0.999, 1.0, 0.999, 0.998, 0.995, 0.993, 0.991, 0.99, 0.991, 0.992, 0.994, 0.996, 0.998, 0.999, 0.998, 0.996, 0.993, 0.988, 0.983, 0.977, 0.97, 0.962, 0.951, 0.937, 0.917, 0.891, 0.858, 0.817, 0.767, 0.71, 0.647, 0.58, 0.511, 0.442, 0.375, 0.312, 0.254, 0.203, 0.159, 0.122, 0.0922, 0.0679, 0.049, 0.0347, 0.024, 0.0163, 0.0108, 0.00704, 0.00449, 0.0028, 0.00171, 0.00102, 0.0006, 0.000344, 0.000194, 0.000107
band9
708.080139841
700.7, 700.8, 700.9, 701.0, 701.1, 701.2, 701.3, 701.4, 701.5, 701.6, 701.7, 701.8, 701.9, 702.0, 702.1, 702.2, 702.3, 702.4, 702.5, 702.6, 702.7, 702.8, 702.9, 703.0, 703.1, 703.2, 703.3, 703.4, 703.5, 703.6, 703.7, 703.8, 703.9, 704.0, 704.1, 704.2, 704.3, 704.4, 704.5, 704.6, 704.7, 704.8, 704.9, 705.0, 705.1, 705.2, 705.3, 705.4, 705.5, 705.6, 705.7, 705.8, 705.9, 706.0, 706.1, 706.2, 706.3, 706.4, 706.5, 706.6, 706.7, 706.8, 706.9, 707.0, 707.1, 707.2, 707.3, 707.4, 707.5, 707.6, 707.7, 707.8, 707.9, 708.0, 708.1, 708.2, 708.3, 708.4, 708.5, 708.6, 708.7, 708.8, 708.9, 709.0, 709.1, 709.2, 709.3, 709.4, 709.5, 709.6, 709.7, 709.8, 709.9, 710.0, 710.1, 710.2, 710.3, 710.4, 710.5, 710.6, 710.7, 710.8, 710.9, 711.0, 711.1, 711.2, 711.3, 711.4, 711.5, 711.6, 711.7, 711.8, 711.9, 712.0, 712.1, 712.2, 712.3, 712.4, 712.5, 712.6, 712.7, 712.8, 712.9, 713.0, 713.1, 713.2, 713.3, 713.4, 713.5, 713.6, 713.7, 713.8, 713.9, 714.0, 714.1, 714.2, 714.3, 714.4, 714.5, 714.6, 714.7, 714.8, 714.9, 715.0, 715.1, 715.2, 715.3
5.41e-05, 0.000101, 0.000184, 0.000328, 0.000574, 0.000982, 0.00165, 0.0027, 0.00434, 0.00684, 0.0105, 0.0159, 0.0235, 0.034, 0.0482, 0.0669, 0.091, 0.121, 0.158, 0.202, 0.253, 0.31, 0.373, 0.441, 0.51, 0.58, 0.647, 0.711, 0.768, 0.817, 0.859, 0.892, 0.918, 0.937, 0.952, 0.962, 0.97, 0.977, 0.983, 0.989, 0.993, 0.997, 0.999, 0.999, 0.998, 0.997, 0.994, 0.992, 0.991, 0.99, 0.991, 0.993, 0.995, 0.998, 0.999, 1.0, 0.999, 0.998, 0.995, 0.993, 0.991, 0.99, 0.99, 0.992, 0.994, 0.996, 0.998, 1.0, 1.0, 0.999, 0.996, 0.994, 0.992, 0.99, 0.99, 0.991, 0.992, 0.995, 0.997, 0.999, 1.0, 0.999, 0.997, 0.995, 0.993, 0.991, 0.99, 0.99, 0.991, 0.993, 0.996, 0.998, 0.999, 0.999, 0.998, 0.996, 0.994, 0.991, 0.99, 0.989, 0.99, 0.992, 0.994, 0.997, 0.998, 0.998, 0.997, 0.994, 0.991, 0.986, 0.98, 0.974, 0.967, 0.958, 0.946, 0.93, 0.909, 0.88, 0.844, 0.799, 0.747, 0.687, 0.622, 0.553, 0.483, 0.415, 0.349, 0.287, 0.232, 0.184, 0.143, 0.109, 0.0809, 0.059, 0.0421, 0.0295, 0.0202, 0.0135, 0.00889, 0.00572, 0.0036, 0.00222, 0.00134, 0.000793, 0.000459, 0.00026, 0.000144
