These are relative spectral response functions of landsat4_mss, and data are taken from official websites. 
Band name may be different from what you can see on those websites, but the right band numbers are kept. 
c1 is generally what you want to use, but others are also included when they are available. 
Works from Professor Philip Lewis and Jose GÃ³mez-Dans are included.

Feng Yin

Dept. Geography, University College London
Gower St.
London WC1E 6BT, UK
marcyinfeng@gmail.com

c1
band1
550.0
462.0, 463.0, 464.0, 465.0, 466.0, 467.0, 468.0, 469.0, 470.0, 471.0, 472.0, 473.0, 474.0, 475.0, 476.0, 477.0, 478.0, 479.0, 480.0, 481.0, 482.0, 483.0, 484.0, 485.0, 486.0, 487.0, 488.0, 489.0, 490.0, 491.0, 492.0, 493.0, 494.0, 495.0, 496.0, 497.0, 498.0, 499.0, 500.0, 501.0, 502.0, 503.0, 504.0, 505.0, 506.0, 507.0, 508.0, 509.0, 510.0, 511.0, 512.0, 513.0, 514.0, 515.0, 516.0, 517.0, 518.0, 519.0, 520.0, 521.0, 522.0, 523.0, 524.0, 525.0, 526.0, 527.0, 528.0, 529.0, 530.0, 531.0, 532.0, 533.0, 534.0, 535.0, 536.0, 537.0, 538.0, 539.0, 540.0, 541.0, 542.0, 543.0, 544.0, 545.0, 546.0, 547.0, 548.0, 549.0, 550.0, 551.0, 552.0, 553.0, 554.0, 555.0, 556.0, 557.0, 558.0, 559.0, 560.0, 561.0, 562.0, 563.0, 564.0, 565.0, 566.0, 567.0, 568.0, 569.0, 570.0, 571.0, 572.0, 573.0, 574.0, 575.0, 576.0, 577.0, 578.0, 579.0, 580.0, 581.0, 582.0, 583.0, 584.0, 585.0, 586.0, 587.0, 588.0, 589.0, 590.0, 591.0, 592.0, 593.0, 594.0, 595.0, 596.0, 597.0, 598.0, 599.0, 600.0, 601.0, 602.0, 603.0, 604.0, 605.0, 606.0, 607.0, 608.0, 609.0, 610.0, 611.0, 612.0, 613.0, 614.0, 615.0, 616.0, 617.0, 618.0, 619.0, 620.0, 621.0, 622.0, 623.0, 624.0, 625.0, 626.0, 627.0, 628.0, 629.0, 630.0, 631.0, 632.0, 633.0, 634.0, 635.0, 636.0, 637.0, 638.0, 639.0, 640.0, 641.0, 642.0, 643.0, 644.0, 645.0, 646.0, 647.0, 648.0, 649.0
0.0, 0.003, 0.005, 0.005, 0.005, 0.006, 0.007, 0.008, 0.009, 0.01, 0.012, 0.017, 0.021, 0.023, 0.025, 0.028, 0.032, 0.037, 0.05, 0.063, 0.084, 0.11, 0.133, 0.157, 0.177, 0.195, 0.218, 0.249, 0.293, 0.336, 0.383, 0.434, 0.464, 0.516, 0.549, 0.606, 0.649, 0.689, 0.712, 0.734, 0.756, 0.775, 0.792, 0.808, 0.83, 0.848, 0.865, 0.882, 0.893, 0.901, 0.906, 0.909, 0.914, 0.92, 0.924, 0.929, 0.931, 0.936, 0.941, 0.947, 0.952, 0.958, 0.963, 0.967, 0.972, 0.978, 0.983, 0.986, 0.988, 0.989, 0.988, 0.988, 0.986, 0.984, 0.983, 0.982, 0.981, 0.979, 0.977, 0.977, 0.977, 0.979, 0.98, 0.982, 0.983, 0.984, 0.984, 0.984, 0.983, 0.98, 0.978, 0.975, 0.972, 0.969, 0.967, 0.963, 0.96, 0.956, 0.955, 0.954, 0.953, 0.952, 0.951, 0.95, 0.948, 0.947, 0.947, 0.946, 0.941, 0.934, 0.927, 0.918, 0.911, 0.902, 0.892, 0.883, 0.876, 0.87, 0.868, 0.868, 0.869, 0.87, 0.873, 0.875, 0.877, 0.879, 0.88, 0.874, 0.858, 0.837, 0.814, 0.792, 0.768, 0.744, 0.725, 0.704, 0.675, 0.651, 0.624, 0.599, 0.565, 0.538, 0.513, 0.482, 0.45, 0.418, 0.392, 0.365, 0.338, 0.305, 0.282, 0.257, 0.226, 0.202, 0.183, 0.153, 0.125, 0.103, 0.089, 0.08, 0.073, 0.068, 0.064, 0.06, 0.054, 0.05, 0.045, 0.042, 0.039, 0.038, 0.035, 0.033, 0.031, 0.029, 0.025, 0.024, 0.023, 0.022, 0.021, 0.02, 0.019, 0.017, 0.012, 0.006, 0.002, 0.0, 0.0, 0.0
band2
650.0
582.0, 583.0, 584.0, 585.0, 586.0, 587.0, 588.0, 589.0, 590.0, 591.0, 592.0, 593.0, 594.0, 595.0, 596.0, 597.0, 598.0, 599.0, 600.0, 601.0, 602.0, 603.0, 604.0, 605.0, 606.0, 607.0, 608.0, 609.0, 610.0, 611.0, 612.0, 613.0, 614.0, 615.0, 616.0, 617.0, 618.0, 619.0, 620.0, 621.0, 622.0, 623.0, 624.0, 625.0, 626.0, 627.0, 628.0, 629.0, 630.0, 631.0, 632.0, 633.0, 634.0, 635.0, 636.0, 637.0, 638.0, 639.0, 640.0, 641.0, 642.0, 643.0, 644.0, 645.0, 646.0, 647.0, 648.0, 649.0, 650.0, 651.0, 652.0, 653.0, 654.0, 655.0, 656.0, 657.0, 658.0, 659.0, 660.0, 661.0, 662.0, 663.0, 664.0, 665.0, 666.0, 667.0, 668.0, 669.0, 670.0, 671.0, 672.0, 673.0, 674.0, 675.0, 676.0, 677.0, 678.0, 679.0, 680.0, 681.0, 682.0, 683.0, 684.0, 685.0, 686.0, 687.0, 688.0, 689.0, 690.0, 691.0, 692.0, 693.0, 694.0, 695.0, 696.0, 697.0, 698.0, 699.0, 700.0, 701.0, 702.0, 703.0, 704.0, 705.0, 706.0, 707.0, 708.0, 709.0, 710.0, 711.0, 712.0, 713.0, 714.0, 715.0, 716.0, 717.0, 718.0, 719.0, 720.0, 721.0, 722.0, 723.0, 724.0, 725.0, 726.0, 727.0, 728.0, 729.0, 730.0, 731.0, 732.0, 733.0, 734.0, 735.0, 736.0, 737.0, 738.0, 739.0, 740.0, 741.0, 742.0, 743.0, 744.0
0.0, 0.001, 0.003, 0.008, 0.013, 0.016, 0.018, 0.021, 0.033, 0.05, 0.082, 0.112, 0.148, 0.19, 0.226, 0.255, 0.291, 0.329, 0.371, 0.409, 0.443, 0.487, 0.527, 0.568, 0.61, 0.651, 0.691, 0.733, 0.77, 0.8, 0.82, 0.834, 0.854, 0.87, 0.883, 0.898, 0.911, 0.927, 0.944, 0.952, 0.959, 0.962, 0.966, 0.97, 0.974, 0.976, 0.982, 0.985, 0.988, 0.989, 0.99, 0.991, 0.992, 0.992, 0.992, 0.993, 0.993, 0.992, 0.992, 0.991, 0.987, 0.983, 0.98, 0.977, 0.972, 0.968, 0.963, 0.96, 0.956, 0.953, 0.949, 0.944, 0.94, 0.937, 0.934, 0.931, 0.926, 0.92, 0.919, 0.917, 0.917, 0.915, 0.913, 0.91, 0.907, 0.906, 0.905, 0.903, 0.902, 0.897, 0.891, 0.887, 0.883, 0.878, 0.872, 0.868, 0.862, 0.856, 0.852, 0.846, 0.84, 0.834, 0.83, 0.823, 0.817, 0.811, 0.805, 0.795, 0.779, 0.748, 0.708, 0.67, 0.631, 0.585, 0.542, 0.502, 0.465, 0.418, 0.384, 0.349, 0.33, 0.299, 0.277, 0.254, 0.232, 0.205, 0.176, 0.157, 0.141, 0.124, 0.117, 0.101, 0.095, 0.087, 0.075, 0.063, 0.057, 0.043, 0.038, 0.032, 0.029, 0.027, 0.025, 0.024, 0.022, 0.019, 0.014, 0.01, 0.011, 0.01, 0.009, 0.009, 0.009, 0.008, 0.007, 0.005, 0.004, 0.003, 0.004, 0.002, 0.0, 0.0, 0.0
band3
750.0
675.0, 676.0, 677.0, 678.0, 679.0, 680.0, 681.0, 682.0, 683.0, 684.0, 685.0, 686.0, 687.0, 688.0, 689.0, 690.0, 691.0, 692.0, 693.0, 694.0, 695.0, 696.0, 697.0, 698.0, 699.0, 700.0, 701.0, 702.0, 703.0, 704.0, 705.0, 706.0, 707.0, 708.0, 709.0, 710.0, 711.0, 712.0, 713.0, 714.0, 715.0, 716.0, 717.0, 718.0, 719.0, 720.0, 721.0, 722.0, 723.0, 724.0, 725.0, 726.0, 727.0, 728.0, 729.0, 730.0, 731.0, 732.0, 733.0, 734.0, 735.0, 736.0, 737.0, 738.0, 739.0, 740.0, 741.0, 742.0, 743.0, 744.0, 745.0, 746.0, 747.0, 748.0, 749.0, 750.0, 751.0, 752.0, 753.0, 754.0, 755.0, 756.0, 757.0, 758.0, 759.0, 760.0, 761.0, 762.0, 763.0, 764.0, 765.0, 766.0, 767.0, 768.0, 769.0, 770.0, 771.0, 772.0, 773.0, 774.0, 775.0, 776.0, 777.0, 778.0, 779.0, 780.0, 781.0, 782.0, 783.0, 784.0, 785.0, 786.0, 787.0, 788.0, 789.0, 790.0, 791.0, 792.0, 793.0, 794.0, 795.0, 796.0, 797.0, 798.0, 799.0, 800.0, 801.0, 802.0, 803.0, 804.0, 805.0, 806.0, 807.0, 808.0, 809.0, 810.0, 811.0, 812.0, 813.0, 814.0, 815.0, 816.0, 817.0, 818.0, 819.0, 820.0, 821.0, 822.0, 823.0, 824.0, 825.0, 826.0, 827.0, 828.0, 829.0, 830.0, 831.0, 832.0, 833.0, 834.0, 835.0, 836.0, 837.0, 838.0, 839.0, 840.0, 841.0, 842.0, 843.0, 844.0, 845.0, 846.0
0.0, 0.0, 0.0, 0.001, 0.002, 0.005, 0.013, 0.024, 0.031, 0.039, 0.046, 0.053, 0.062, 0.069, 0.078, 0.097, 0.124, 0.165, 0.202, 0.244, 0.281, 0.317, 0.35, 0.398, 0.43, 0.473, 0.518, 0.558, 0.606, 0.649, 0.706, 0.742, 0.788, 0.834, 0.87, 0.898, 0.917, 0.926, 0.936, 0.945, 0.955, 0.961, 0.968, 0.978, 0.985, 0.989, 0.988, 0.982, 0.977, 0.971, 0.963, 0.955, 0.95, 0.943, 0.936, 0.93, 0.923, 0.918, 0.915, 0.912, 0.907, 0.902, 0.898, 0.892, 0.887, 0.887, 0.887, 0.887, 0.886, 0.886, 0.886, 0.886, 0.886, 0.885, 0.884, 0.882, 0.88, 0.877, 0.875, 0.872, 0.869, 0.866, 0.863, 0.86, 0.857, 0.854, 0.85, 0.845, 0.841, 0.839, 0.835, 0.83, 0.825, 0.821, 0.817, 0.814, 0.811, 0.81, 0.807, 0.805, 0.803, 0.801, 0.798, 0.795, 0.791, 0.787, 0.782, 0.777, 0.772, 0.769, 0.764, 0.759, 0.755, 0.749, 0.743, 0.737, 0.731, 0.726, 0.72, 0.715, 0.708, 0.703, 0.699, 0.695, 0.69, 0.685, 0.68, 0.675, 0.672, 0.669, 0.665, 0.663, 0.66, 0.656, 0.644, 0.62, 0.573, 0.521, 0.468, 0.425, 0.379, 0.321, 0.274, 0.211, 0.18, 0.152, 0.125, 0.111, 0.1, 0.089, 0.077, 0.064, 0.054, 0.043, 0.034, 0.026, 0.021, 0.02, 0.017, 0.016, 0.014, 0.015, 0.013, 0.01, 0.008, 0.009, 0.008, 0.002, 0.001, 0.0, 0.0, 0.0
band4
950.0
765.0, 766.0, 767.0, 768.0, 769.0, 770.0, 771.0, 772.0, 773.0, 774.0, 775.0, 776.0, 777.0, 778.0, 779.0, 780.0, 781.0, 782.0, 783.0, 784.0, 785.0, 786.0, 787.0, 788.0, 789.0, 790.0, 791.0, 792.0, 793.0, 794.0, 795.0, 796.0, 797.0, 798.0, 799.0, 800.0, 801.0, 802.0, 803.0, 804.0, 805.0, 806.0, 807.0, 808.0, 809.0, 810.0, 811.0, 812.0, 813.0, 814.0, 815.0, 816.0, 817.0, 818.0, 819.0, 820.0, 821.0, 822.0, 823.0, 824.0, 825.0, 826.0, 827.0, 828.0, 829.0, 830.0, 831.0, 832.0, 833.0, 834.0, 835.0, 836.0, 837.0, 838.0, 839.0, 840.0, 841.0, 842.0, 843.0, 844.0, 845.0, 846.0, 847.0, 848.0, 849.0, 850.0, 851.0, 852.0, 853.0, 854.0, 855.0, 856.0, 857.0, 858.0, 859.0, 860.0, 861.0, 862.0, 863.0, 864.0, 865.0, 866.0, 867.0, 868.0, 869.0, 870.0, 871.0, 872.0, 873.0, 874.0, 875.0, 876.0, 877.0, 878.0, 879.0, 880.0, 881.0, 882.0, 883.0, 884.0, 885.0, 886.0, 887.0, 888.0, 889.0, 890.0, 891.0, 892.0, 893.0, 894.0, 895.0, 896.0, 897.0, 898.0, 899.0, 900.0, 901.0, 902.0, 903.0, 904.0, 905.0, 906.0, 907.0, 908.0, 909.0, 910.0, 911.0, 912.0, 913.0, 914.0, 915.0, 916.0, 917.0, 918.0, 919.0, 920.0, 921.0, 922.0, 923.0, 924.0, 925.0, 926.0, 927.0, 928.0, 929.0, 930.0, 931.0, 932.0, 933.0, 934.0, 935.0, 936.0, 937.0, 938.0, 939.0, 940.0, 941.0, 942.0, 943.0, 944.0, 945.0, 946.0, 947.0, 948.0, 949.0, 950.0, 951.0, 952.0, 953.0, 954.0, 955.0, 956.0, 957.0, 958.0, 959.0, 960.0, 961.0, 962.0, 963.0, 964.0, 965.0, 966.0, 967.0, 968.0, 969.0, 970.0, 971.0, 972.0, 973.0, 974.0, 975.0, 976.0, 977.0, 978.0, 979.0, 980.0, 981.0, 982.0, 983.0, 984.0, 985.0, 986.0, 987.0, 988.0, 989.0, 990.0, 991.0, 992.0, 993.0, 994.0, 995.0, 996.0, 997.0, 998.0, 999.0, 1000.0, 1001.0, 1002.0, 1003.0, 1004.0, 1005.0, 1006.0, 1007.0, 1008.0, 1009.0, 1010.0, 1011.0, 1012.0, 1013.0, 1014.0, 1015.0, 1016.0, 1017.0, 1018.0, 1019.0, 1020.0, 1021.0, 1022.0, 1023.0, 1024.0, 1025.0, 1026.0, 1027.0, 1028.0, 1029.0, 1030.0, 1031.0, 1032.0, 1033.0, 1034.0, 1035.0, 1036.0, 1037.0, 1038.0, 1039.0, 1040.0, 1041.0, 1042.0, 1043.0, 1044.0, 1045.0, 1046.0, 1047.0, 1048.0, 1049.0, 1050.0, 1051.0, 1052.0, 1053.0, 1054.0, 1055.0, 1056.0, 1057.0, 1058.0, 1059.0, 1060.0, 1061.0, 1062.0, 1063.0, 1064.0, 1065.0, 1066.0, 1067.0, 1068.0, 1069.0, 1070.0, 1071.0, 1072.0, 1073.0, 1074.0, 1075.0, 1076.0, 1077.0, 1078.0, 1079.0, 1080.0, 1081.0, 1082.0, 1083.0, 1084.0, 1085.0, 1086.0, 1087.0, 1088.0, 1089.0, 1090.0, 1091.0, 1092.0, 1093.0, 1094.0, 1095.0, 1096.0, 1097.0, 1098.0, 1099.0, 1100.0, 1101.0
0.0, 0.0, 0.0, 0.007, 0.0035, 0.00333333333333, 0.006, 0.00866666666667, 0.0106666666667, 0.0116666666667, 0.009, 0.01075, 0.0094, 0.0112, 0.013, 0.0123333333333, 0.0145, 0.0176666666667, 0.0211666666667, 0.0261666666667, 0.0308333333333, 0.035, 0.0406666666667, 0.0448333333333, 0.0491666666667, 0.0573333333333, 0.0681666666667, 0.0796666666667, 0.0956666666667, 0.108666666667, 0.1205, 0.137166666667, 0.158333333333, 0.176333333333, 0.201833333333, 0.2265, 0.264666666667, 0.309666666667, 0.373666666667, 0.412833333333, 0.4415, 0.499166666667, 0.538166666667, 0.606666666667, 0.638333333333, 0.679166666667, 0.715, 0.7435, 0.7675, 0.795666666667, 0.832166666667, 0.863166666667, 0.8925, 0.921333333333, 0.946, 0.962666666667, 0.9745, 0.977833333333, 0.98, 0.980833333333, 0.981166666667, 0.981666666667, 0.9815, 0.981, 0.981166666667, 0.981, 0.981, 0.981, 0.980666666667, 0.9805, 0.9805, 0.979666666667, 0.9795, 0.979, 0.978333333333, 0.978166666667, 0.977666666667, 0.977333333333, 0.977, 0.976166666667, 0.975666666667, 0.975166666667, 0.974833333333, 0.973833333333, 0.9735, 0.973, 0.971666666667, 0.970333333333, 0.969333333333, 0.968333333333, 0.967333333333, 0.966666666667, 0.966166666667, 0.966, 0.965666666667, 0.965, 0.964166666667, 0.9635, 0.962166666667, 0.961833333333, 0.961, 0.959666666667, 0.957833333333, 0.956666666667, 0.955166666667, 0.953833333333, 0.952166666667, 0.95, 0.948333333333, 0.947333333333, 0.946333333333, 0.945, 0.943833333333, 0.942666666667, 0.941, 0.938, 0.936833333333, 0.936, 0.935333333333, 0.935, 0.935166666667, 0.934833333333, 0.935166666667, 0.935166666667, 0.934833333333, 0.934833333333, 0.935333333333, 0.935666666667, 0.935833333333, 0.936333333333, 0.936333333333, 0.935833333333, 0.936, 0.936, 0.935666666667, 0.9355, 0.9355, 0.9365, 0.937333333333, 0.937333333333, 0.9375, 0.937666666667, 0.937833333333, 0.938166666667, 0.938666666667, 0.939333333333, 0.939833333333, 0.940333333333, 0.941, 0.941333333333, 0.941166666667, 0.941333333333, 0.940833333333, 0.940833333333, 0.9405, 0.94, 0.938333333333, 0.936, 0.9335, 0.930333333333, 0.926333333333, 0.9235, 0.920833333333, 0.916833333333, 0.913166666667, 0.9085, 0.904666666667, 0.901833333333, 0.899166666667, 0.896, 0.892166666667, 0.888, 0.885, 0.881333333333, 0.877833333333, 0.874166666667, 0.870833333333, 0.867666666667, 0.863666666667, 0.86, 0.855333333333, 0.851833333333, 0.849666666667, 0.846833333333, 0.843, 0.836666666667, 0.8335, 0.830833333333, 0.8265, 0.822166666667, 0.8185, 0.815666666667, 0.811333333333, 0.808333333333, 0.804666666667, 0.801166666667, 0.796833333333, 0.793, 0.7895, 0.787166666667, 0.782333333333, 0.777666666667, 0.773166666667, 0.769333333333, 0.765666666667, 0.763166666667, 0.7605, 0.755166666667, 0.751833333333, 0.7465, 0.7425, 0.738, 0.735166666667, 0.730833333333, 0.725833333333, 0.720166666667, 0.713333333333, 0.708333333333, 0.702166666667, 0.697166666667, 0.690333333333, 0.685166666667, 0.679166666667, 0.673666666667, 0.6695, 0.6635, 0.657, 0.651833333333, 0.645666666667, 0.640666666667, 0.636, 0.628666666667, 0.6225, 0.617333333333, 0.612, 0.604333333333, 0.599, 0.594166666667, 0.590333333333, 0.585333333333, 0.58, 0.573333333333, 0.568, 0.563333333333, 0.556166666667, 0.5495, 0.544, 0.539, 0.5345, 0.528833333333, 0.523166666667, 0.517333333333, 0.511, 0.507166666667, 0.503166666667, 0.499333333333, 0.495666666667, 0.491166666667, 0.487833333333, 0.483833333333, 0.4805, 0.476666666667, 0.4735, 0.4695, 0.466333333333, 0.462166666667, 0.457833333333, 0.453, 0.449333333333, 0.446333333333, 0.4435, 0.441166666667, 0.436833333333, 0.431833333333, 0.424666666667, 0.421833333333, 0.417, 0.413666666667, 0.408333333333, 0.402666666667, 0.3975, 0.393166666667, 0.3885, 0.382, 0.378, 0.374333333333, 0.369166666667, 0.362166666667, 0.358166666667, 0.352333333333, 0.347166666667, 0.342333333333, 0.338333333333, 0.332833333333, 0.33, 0.3275, 0.322666666667, 0.319833333333, 0.315166666667, 0.312333333333, 0.309, 0.305666666667, 0.302666666667, 0.299666666667, 0.297333333333, 0.295, 0.292, 0.289, 0.286666666667, 0.284166666667, 0.281, 0.277333333333, 0.2745, 0.271166666667, 0.268833333333, 0.263666666667, 0.259666666667, 0.255166666667, 0.2485, 0.245, 0.241666666667, 0.237833333333, 0.234333333333, 0.2305, 0.227166666667, 0.2225, 0.217666666667, 0.2135, 0.208166666667, 0.156833333333, 0.1235, 0.0935, 0.0626666666667, 0.0672, 0.0495, 0.0, 0.0
