These are relative spectral response functions of landsat5_tm, and data are taken from official websites. 
Band name may be different from what you can see on those websites, but the right band numbers are kept. 
c1 is generally what you want to use, but others are also included when they are available. 
Works from Professor Philip Lewis and Jose GÃ³mez-Dans are included.

Feng Yin

Dept. Geography, University College London
Gower St.
London WC1E 6BT, UK
marcyinfeng@gmail.com

c1
band1
485.0
410.0, 411.0, 412.0, 413.0, 414.0, 415.0, 416.0, 417.0, 418.0, 419.0, 420.0, 421.0, 422.0, 423.0, 424.0, 425.0, 426.0, 427.0, 428.0, 429.0, 430.0, 431.0, 432.0, 433.0, 434.0, 435.0, 436.0, 437.0, 438.0, 439.0, 440.0, 441.0, 442.0, 443.0, 444.0, 445.0, 446.0, 447.0, 448.0, 449.0, 450.0, 451.0, 452.0, 453.0, 454.0, 455.0, 456.0, 457.0, 458.0, 459.0, 460.0, 461.0, 462.0, 463.0, 464.0, 465.0, 466.0, 467.0, 468.0, 469.0, 470.0, 471.0, 472.0, 473.0, 474.0, 475.0, 476.0, 477.0, 478.0, 479.0, 480.0, 481.0, 482.0, 483.0, 484.0, 485.0, 486.0, 487.0, 488.0, 489.0, 490.0, 491.0, 492.0, 493.0, 494.0, 495.0, 496.0, 497.0, 498.0, 499.0, 500.0, 501.0, 502.0, 503.0, 504.0, 505.0, 506.0, 507.0, 508.0, 509.0, 510.0, 511.0, 512.0, 513.0, 514.0, 515.0, 516.0, 517.0, 518.0, 519.0, 520.0, 521.0, 522.0, 523.0, 524.0, 525.0, 526.0, 527.0, 528.0, 529.0, 530.0, 531.0, 532.0, 533.0, 534.0, 535.0, 536.0, 537.0, 538.0, 539.0, 540.0, 541.0, 542.0, 543.0, 544.0, 545.0, 546.0, 547.0, 548.0, 549.0, 550.0, 551.0, 552.0
0.0, 0.0, 0.0, 0.0, 0.0, 0.0, 0.0, 0.0, 0.0, 0.0, 0.0007, 0.0008, 0.0008, 0.0009, 0.0009, 0.001, 0.0013, 0.0016, 0.002, 0.0023, 0.0027, 0.0042, 0.006, 0.0086, 0.0113, 0.0141, 0.017, 0.0216, 0.0268, 0.0321, 0.037, 0.042, 0.0471, 0.0524, 0.0577, 0.0633, 0.0746, 0.1097, 0.1564, 0.2483, 0.3391, 0.4058, 0.4741, 0.5366, 0.5856, 0.6667, 0.688, 0.6993, 0.7095, 0.7165, 0.72, 0.7326, 0.7475, 0.7583, 0.7714, 0.7847, 0.7924, 0.8002, 0.808, 0.8156, 0.8206, 0.8257, 0.8308, 0.8359, 0.8421, 0.8526, 0.8642, 0.8724, 0.8824, 0.8925, 0.9026, 0.9069, 0.9111, 0.9154, 0.9196, 0.9238, 0.9285, 0.9332, 0.9379, 0.9425, 0.9472, 0.9548, 0.9623, 0.9698, 0.9761, 0.9775, 0.9788, 0.9802, 0.9815, 0.9837, 0.9891, 0.9935, 0.9978, 1.0, 0.9952, 0.9828, 0.9524, 0.9219, 0.8914, 0.8607, 0.8293, 0.8021, 0.7877, 0.7732, 0.7565, 0.7339, 0.6859, 0.5784, 0.4813, 0.4002, 0.3187, 0.2367, 0.1324, 0.1018, 0.0911, 0.0804, 0.0696, 0.0588, 0.0532, 0.0498, 0.0465, 0.0431, 0.0397, 0.0364, 0.033, 0.0296, 0.0261, 0.0227, 0.0205, 0.0184, 0.0162, 0.014, 0.0119, 0.0105, 0.0093, 0.0081, 0.0069, 0.0058, 0.0056, 0.0054, 0.0052, 0.0, 0.0
band2
560.0
500.0, 501.0, 502.0, 503.0, 504.0, 505.0, 506.0, 507.0, 508.0, 509.0, 510.0, 511.0, 512.0, 513.0, 514.0, 515.0, 516.0, 517.0, 518.0, 519.0, 520.0, 521.0, 522.0, 523.0, 524.0, 525.0, 526.0, 527.0, 528.0, 529.0, 530.0, 531.0, 532.0, 533.0, 534.0, 535.0, 536.0, 537.0, 538.0, 539.0, 540.0, 541.0, 542.0, 543.0, 544.0, 545.0, 546.0, 547.0, 548.0, 549.0, 550.0, 551.0, 552.0, 553.0, 554.0, 555.0, 556.0, 557.0, 558.0, 559.0, 560.0, 561.0, 562.0, 563.0, 564.0, 565.0, 566.0, 567.0, 568.0, 569.0, 570.0, 571.0, 572.0, 573.0, 574.0, 575.0, 576.0, 577.0, 578.0, 579.0, 580.0, 581.0, 582.0, 583.0, 584.0, 585.0, 586.0, 587.0, 588.0, 589.0, 590.0, 591.0, 592.0, 593.0, 594.0, 595.0, 596.0, 597.0, 598.0, 599.0, 600.0, 601.0, 602.0, 603.0, 604.0, 605.0, 606.0, 607.0, 608.0, 609.0, 610.0, 611.0, 612.0, 613.0, 614.0, 615.0, 616.0, 617.0, 618.0, 619.0, 620.0, 621.0, 622.0, 623.0, 624.0, 625.0, 626.0, 627.0, 628.0, 629.0, 630.0, 635.0, 640.0, 645.0, 650.0
0.0, 0.0007, 0.0021, 0.0036, 0.0032, 0.0065, 0.0089, 0.0139, 0.0164, 0.019, 0.0233, 0.0261, 0.029, 0.0318, 0.0347, 0.0377, 0.0544, 0.0713, 0.0982, 0.1297, 0.1635, 0.2055, 0.2479, 0.2908, 0.3341, 0.3779, 0.419, 0.4593, 0.4999, 0.5409, 0.5718, 0.5967, 0.6142, 0.6286, 0.6431, 0.6578, 0.6722, 0.6868, 0.7015, 0.7163, 0.7312, 0.7416, 0.752, 0.7625, 0.773, 0.7836, 0.7941, 0.8047, 0.8153, 0.826, 0.8367, 0.8425, 0.8483, 0.8541, 0.8594, 0.8646, 0.8695, 0.8743, 0.8792, 0.8841, 0.889, 0.8937, 0.8983, 0.9029, 0.9044, 0.9044, 0.905, 0.9056, 0.9063, 0.9068, 0.9074, 0.9073, 0.9072, 0.907, 0.9069, 0.9067, 0.9057, 0.9047, 0.9073, 0.9098, 0.9124, 0.9155, 0.9186, 0.9218, 0.9392, 0.95, 0.9591, 0.9683, 0.9768, 0.9819, 0.9871, 0.9913, 0.9967, 0.9999, 1.0, 0.9978, 0.9961, 0.992, 0.9757, 0.9592, 0.9428, 0.9199, 0.887, 0.854, 0.821, 0.7878, 0.7387, 0.6647, 0.5901, 0.5153, 0.4616, 0.4083, 0.3547, 0.3007, 0.2464, 0.2039, 0.1796, 0.1552, 0.1306, 0.1072, 0.0969, 0.0865, 0.076, 0.0655, 0.0549, 0.0517, 0.0485, 0.0454, 0.0422, 0.0389, 0.0357, 0.0207, 0.0115, 0.0058, 0.0
band3
660.0
580.0, 590.0, 600.0, 605.0, 610.0, 611.0, 612.0, 613.0, 614.0, 615.0, 616.0, 617.0, 618.0, 619.0, 620.0, 621.0, 622.0, 623.0, 624.0, 625.0, 626.0, 627.0, 628.0, 629.0, 630.0, 631.0, 632.0, 633.0, 634.0, 635.0, 636.0, 637.0, 638.0, 639.0, 640.0, 641.0, 642.0, 643.0, 644.0, 645.0, 646.0, 647.0, 648.0, 649.0, 650.0, 651.0, 652.0, 653.0, 654.0, 655.0, 656.0, 657.0, 658.0, 659.0, 660.0, 661.0, 662.0, 663.0, 664.0, 665.0, 666.0, 667.0, 668.0, 669.0, 670.0, 671.0, 672.0, 673.0, 674.0, 675.0, 676.0, 677.0, 678.0, 679.0, 680.0, 681.0, 682.0, 683.0, 684.0, 685.0, 686.0, 687.0, 688.0, 689.0, 690.0, 691.0, 692.0, 693.0, 694.0, 695.0, 696.0, 697.0, 698.0, 699.0, 700.0, 701.0, 702.0, 703.0, 704.0, 705.0, 710.0, 715.0, 720.0, 725.0, 730.0, 740.0
0.0018, 0.002, 0.0079, 0.0205, 0.0375, 0.0409, 0.0555, 0.073, 0.0906, 0.1082, 0.1262, 0.1444, 0.1626, 0.2169, 0.2958, 0.3759, 0.4086, 0.4293, 0.4503, 0.4715, 0.4923, 0.5132, 0.5343, 0.5555, 0.5774, 0.6031, 0.6374, 0.6848, 0.7325, 0.7482, 0.7642, 0.7802, 0.7947, 0.8065, 0.8184, 0.8304, 0.8424, 0.8545, 0.8614, 0.8678, 0.8743, 0.8809, 0.8875, 0.8971, 0.9008, 0.9017, 0.9026, 0.9035, 0.9044, 0.9052, 0.9055, 0.9058, 0.906, 0.9062, 0.9064, 0.9104, 0.9143, 0.9195, 0.9266, 0.9338, 0.9412, 0.9488, 0.9563, 0.964, 0.9699, 0.9749, 0.9799, 0.9847, 0.9895, 0.9932, 0.9966, 1.0, 0.9995, 0.9989, 0.9983, 0.9784, 0.9806, 0.9827, 0.9732, 0.9558, 0.9384, 0.9209, 0.885, 0.8364, 0.7874, 0.7, 0.6052, 0.5144, 0.4413, 0.3678, 0.2942, 0.2277, 0.1916, 0.1552, 0.1186, 0.1079, 0.0972, 0.0864, 0.0756, 0.0646, 0.0464, 0.0309, 0.02, 0.0123, 0.0062, 0.0031
band4
830.0
730.0, 735.0, 740.0, 745.0, 750.0, 751.0, 752.0, 753.0, 754.0, 755.0, 756.0, 757.0, 758.0, 759.0, 760.0, 761.0, 762.0, 763.0, 764.0, 765.0, 766.0, 767.0, 768.0, 769.0, 770.0, 771.0, 772.0, 773.0, 774.0, 775.0, 776.0, 777.0, 778.0, 779.0, 780.0, 781.0, 782.0, 783.0, 784.0, 785.0, 786.0, 787.0, 788.0, 789.0, 790.0, 791.0, 792.0, 793.0, 794.0, 795.0, 796.0, 797.0, 798.0, 799.0, 800.0, 801.0, 802.0, 803.0, 804.0, 805.0, 806.0, 807.0, 808.0, 809.0, 810.0, 811.0, 812.0, 813.0, 814.0, 815.0, 816.0, 817.0, 818.0, 819.0, 820.0, 821.0, 822.0, 823.0, 824.0, 825.0, 826.0, 827.0, 828.0, 829.0, 830.0, 831.0, 832.0, 833.0, 834.0, 835.0, 836.0, 837.0, 838.0, 839.0, 840.0, 841.0, 842.0, 843.0, 844.0, 845.0, 846.0, 847.0, 848.0, 849.0, 850.0, 851.0, 852.0, 853.0, 854.0, 855.0, 856.0, 857.0, 858.0, 859.0, 860.0, 861.0, 862.0, 863.0, 864.0, 865.0, 866.0, 867.0, 868.0, 869.0, 870.0, 871.0, 872.0, 873.0, 874.0, 875.0, 876.0, 877.0, 878.0, 879.0, 880.0, 881.0, 882.0, 883.0, 884.0, 885.0, 886.0, 887.0, 888.0, 889.0, 890.0, 891.0, 892.0, 893.0, 894.0, 895.0, 896.0, 897.0, 898.0, 899.0, 900.0, 901.0, 902.0, 903.0, 904.0, 905.0, 906.0, 907.0, 908.0, 909.0, 910.0, 911.0, 912.0, 913.0, 914.0, 915.0, 920.0, 925.0, 930.0, 935.0, 940.0, 945.0
0.0023, 0.0046, 0.007, 0.0093, 0.0186, 0.0214, 0.0242, 0.027, 0.0298, 0.0326, 0.0402, 0.0478, 0.0554, 0.063, 0.0706, 0.0784, 0.0862, 0.094, 0.1152, 0.1364, 0.1577, 0.1791, 0.2069, 0.2409, 0.2752, 0.3095, 0.344, 0.3786, 0.4133, 0.4482, 0.4833, 0.5259, 0.5683, 0.6108, 0.6534, 0.6963, 0.7393, 0.7745, 0.8017, 0.829, 0.8564, 0.8838, 0.8992, 0.9146, 0.93, 0.9418, 0.9499, 0.958, 0.9661, 0.9743, 0.9794, 0.9845, 0.9897, 0.9948, 1.0, 0.9982, 0.9964, 0.9946, 0.9928, 0.991, 0.9889, 0.9868, 0.9846, 0.9825, 0.9804, 0.9758, 0.9712, 0.9666, 0.962, 0.9574, 0.9529, 0.9483, 0.9442, 0.94, 0.9359, 0.9313, 0.9268, 0.9223, 0.9178, 0.9161, 0.916, 0.9164, 0.9167, 0.917, 0.9173, 0.9176, 0.9178, 0.9181, 0.9183, 0.9185, 0.9188, 0.919, 0.9192, 0.9194, 0.9196, 0.9202, 0.9208, 0.9214, 0.922, 0.9226, 0.9232, 0.9237, 0.9243, 0.9249, 0.9254, 0.9217, 0.9179, 0.9141, 0.9104, 0.9067, 0.9029, 0.8992, 0.8947, 0.8901, 0.8856, 0.8831, 0.8815, 0.881, 0.8804, 0.8811, 0.8818, 0.8824, 0.8831, 0.8838, 0.8844, 0.8858, 0.8871, 0.8853, 0.8832, 0.881, 0.8768, 0.8725, 0.8683, 0.8641, 0.8599, 0.853, 0.8451, 0.8372, 0.8294, 0.8217, 0.8139, 0.8063, 0.7986, 0.791, 0.7835, 0.7835, 0.7836, 0.7787, 0.769, 0.7592, 0.7495, 0.7398, 0.7302, 0.7208, 0.7152, 0.671, 0.6299, 0.5891, 0.5299, 0.4664, 0.4033, 0.3405, 0.2945, 0.2528, 0.2114, 0.1702, 0.143, 0.1195, 0.0962, 0.0772, 0.0314, 0.0154, 0.0075, 0.0055, 0.0035, 0.0017
band5
1650.0
1514.0, 1515.0, 1517.0, 1519.0, 1521.0, 1523.0, 1525.0, 1526.0, 1528.0, 1530.0, 1532.0, 1534.0, 1536.0, 1538.0, 1540.0, 1542.0, 1543.0, 1545.0, 1547.0, 1549.0, 1551.0, 1553.0, 1555.0, 1557.0, 1559.0, 1561.0, 1563.0, 1565.0, 1567.0, 1569.0, 1571.0, 1572.0, 1574.0, 1576.0, 1578.0, 1580.0, 1582.0, 1584.0, 1586.0, 1588.0, 1590.0, 1592.0, 1594.0, 1596.0, 1598.0, 1600.0, 1602.0, 1604.0, 1606.0, 1608.0, 1610.0, 1613.0, 1615.0, 1617.0, 1619.0, 1621.0, 1623.0, 1625.0, 1627.0, 1629.0, 1631.0, 1633.0, 1635.0, 1637.0, 1639.0, 1641.0, 1643.0, 1645.0, 1647.0, 1649.0, 1651.0, 1653.0, 1656.0, 1658.0, 1660.0, 1662.0, 1664.0, 1666.0, 1668.0, 1670.0, 1672.0, 1674.0, 1676.0, 1678.0, 1680.0, 1682.0, 1684.0, 1687.0, 1689.0, 1691.0, 1693.0, 1695.0, 1697.0, 1699.0, 1701.0, 1703.0, 1705.0, 1707.0, 1709.0, 1711.0, 1714.0, 1716.0, 1718.0, 1720.0, 1722.0, 1724.0, 1725.0, 1726.0, 1728.0, 1730.0, 1732.0, 1734.0, 1736.0, 1738.0, 1740.0, 1742.0, 1744.0, 1747.0, 1749.0, 1751.0, 1753.0, 1755.0, 1757.0, 1759.0, 1761.0, 1763.0, 1765.0, 1767.0, 1769.0, 1771.0, 1773.0, 1775.0, 1777.0, 1779.0, 1781.0, 1783.0, 1785.0, 1787.0, 1789.0, 1791.0, 1793.0, 1795.0, 1797.0, 1799.0, 1801.0, 1803.0, 1805.0, 1807.0, 1809.0, 1811.0, 1813.0, 1815.0, 1820.0, 1825.0, 1830.0, 1840.0, 1850.0, 1860.0, 1870.0, 1880.0, nan, nan, nan, nan, nan, nan, nan, nan, nan, nan, nan, nan, nan, nan, nan, nan, nan, nan, nan, nan, nan, nan, nan, nan, nan, nan, nan, nan, nan, nan, nan, nan, nan, nan, nan, nan, nan, nan, nan, nan, nan, nan, nan, nan, nan, nan, nan, nan, nan, nan, nan, nan, nan, nan, nan, nan, nan, nan, nan, nan, nan, nan, nan, nan, nan, nan, nan, nan, nan, nan
0.0012, 0.0013, 0.0014, 0.0016, 0.0024, 0.0039, 0.0054, 0.0061, 0.0077, 0.0093, 0.0116, 0.014, 0.0165, 0.019, 0.0216, 0.0351, 0.0419, 0.0557, 0.0696, 0.0837, 0.1104, 0.1497, 0.1894, 0.2295, 0.2701, 0.3179, 0.3732, 0.4294, 0.4865, 0.5446, 0.5989, 0.6239, 0.6746, 0.726, 0.7781, 0.8308, 0.8553, 0.88, 0.905, 0.9301, 0.9555, 0.9526, 0.9497, 0.9467, 0.9438, 0.9409, 0.9415, 0.9421, 0.9428, 0.9434, 0.944, 0.9519, 0.9572, 0.9625, 0.9677, 0.9718, 0.9747, 0.9777, 0.9806, 0.9835, 0.9842, 0.9827, 0.9813, 0.9798, 0.9783, 0.9763, 0.9737, 0.9711, 0.9686, 0.966, 0.9661, 0.9687, 0.9727, 0.9753, 0.978, 0.979, 0.98, 0.981, 0.982, 0.983, 0.9837, 0.9844, 0.985, 0.9857, 0.9864, 0.9844, 0.9825, 0.9796, 0.9776, 0.9784, 0.982, 0.9857, 0.9893, 0.9926, 0.9953, 0.9963, 0.9974, 0.9985, 0.9995, 0.9997, 0.9988, 0.9981, 0.9975, 0.9968, 0.9922, 0.9877, 0.9854, 0.9831, 0.9785, 0.974, 0.9706, 0.9671, 0.9637, 0.9603, 0.9569, 0.9555, 0.9542, 0.9523, 0.9509, 0.9505, 0.9508, 0.9512, 0.9516, 0.9519, 0.946, 0.9339, 0.9219, 0.9098, 0.8915, 0.8651, 0.8124, 0.7597, 0.7069, 0.6542, 0.5968, 0.535, 0.4732, 0.4114, 0.3497, 0.3026, 0.2698, 0.2369, 0.204, 0.171, 0.1462, 0.1294, 0.1127, 0.096, 0.0794, 0.0684, 0.0629, 0.0574, 0.0463, 0.0326, 0.0217, 0.0129, 0.0086, 0.0043, 0.0032, 0.0021, nan, nan, nan, nan, nan, nan, nan, nan, nan, nan, nan, nan, nan, nan, nan, nan, nan, nan, nan, nan, nan, nan, nan, nan, nan, nan, nan, nan, nan, nan, nan, nan, nan, nan, nan, nan, nan, nan, nan, nan, nan, nan, nan, nan, nan, nan, nan, nan, nan, nan, nan, nan, nan, nan, nan, nan, nan, nan, nan, nan, nan, nan, nan, nan, nan, nan, nan, nan, nan, nan
band7
2215.0
2000.0, 2001.0, 2003.0, 2005.0, 2007.0, 2009.0, 2011.0, 2013.0, 2015.0, 2017.0, 2018.0, 2020.0, 2022.0, 2024.0, 2026.0, 2028.0, 2030.0, 2032.0, 2034.0, 2035.0, 2037.0, 2039.0, 2041.0, 2043.0, 2045.0, 2047.0, 2049.0, 2051.0, 2052.0, 2054.0, 2056.0, 2058.0, 2060.0, 2062.0, 2064.0, 2066.0, 2067.0, 2069.0, 2071.0, 2073.0, 2075.0, 2077.0, 2079.0, 2081.0, 2083.0, 2085.0, 2086.0, 2088.0, 2090.0, 2092.0, 2094.0, 2096.0, 2099.0, 2100.0, 2102.0, 2104.0, 2106.0, 2108.0, 2110.0, 2112.0, 2114.0, 2116.0, 2117.0, 2119.0, 2121.0, 2123.0, 2125.0, 2127.0, 2129.0, 2131.0, 2133.0, 2135.0, 2136.0, 2138.0, 2140.0, 2142.0, 2144.0, 2146.0, 2148.0, 2150.0, 2151.0, 2153.0, 2155.0, 2157.0, 2159.0, 2161.0, 2163.0, 2165.0, 2166.0, 2168.0, 2170.0, 2172.0, 2174.0, 2176.0, 2178.0, 2180.0, 2182.0, 2183.0, 2185.0, 2187.0, 2189.0, 2191.0, 2193.0, 2195.0, 2197.0, 2199.0, 2201.0, 2203.0, 2205.0, 2207.0, 2209.0, 2210.0, 2212.0, 2214.0, 2216.0, 2218.0, 2220.0, 2222.0, 2223.0, 2226.0, 2227.0, 2229.0, 2231.0, 2233.0, 2235.0, 2237.0, 2239.0, 2241.0, 2242.0, 2244.0, 2246.0, 2248.0, 2250.0, 2252.0, 2254.0, 2256.0, 2258.0, 2259.0, 2261.0, 2263.0, 2265.0, 2267.0, 2269.0, 2271.0, 2273.0, 2274.0, 2276.0, 2278.0, 2280.0, 2282.0, 2284.0, 2286.0, 2288.0, 2290.0, 2292.0, 2293.0, 2295.0, 2297.0, 2299.0, 2301.0, 2303.0, 2305.0, 2307.0, 2309.0, 2310.0, 2312.0, 2314.0, 2316.0, 2318.0, 2320.0, 2322.0, 2323.0, 2325.0, 2327.0, 2329.0, 2331.0, 2333.0, 2335.0, 2337.0, 2339.0, 2340.0, 2342.0, 2344.0, 2346.0, 2348.0, 2350.0, 2352.0, 2354.0, 2355.0, 2357.0, 2359.0, 2361.0, 2363.0, 2365.0, 2367.0, 2369.0, 2371.0, 2373.0, 2374.0, 2376.0, 2378.0, 2380.0, 2382.0, 2384.0, 2386.0, 2390.0, 2395.0, 2400.0
0.0097, 0.0102, 0.0112, 0.0121, 0.0131, 0.0141, 0.0151, 0.016, 0.017, 0.018, 0.0185, 0.0194, 0.0219, 0.0244, 0.0269, 0.0294, 0.0319, 0.0344, 0.0367, 0.0381, 0.0407, 0.0432, 0.0472, 0.0527, 0.0583, 0.0638, 0.0694, 0.075, 0.0778, 0.0834, 0.0891, 0.0947, 0.1004, 0.1136, 0.1267, 0.14, 0.1466, 0.1599, 0.1732, 0.1865, 0.1998, 0.2132, 0.2266, 0.2486, 0.2794, 0.3103, 0.3258, 0.3568, 0.3878, 0.419, 0.4502, 0.4814, 0.5285, 0.5442, 0.5744, 0.6048, 0.6353, 0.6659, 0.6967, 0.7276, 0.7587, 0.7891, 0.8056, 0.837, 0.8578, 0.8676, 0.8774, 0.8873, 0.8971, 0.907, 0.917, 0.9269, 0.9319, 0.9419, 0.9519, 0.9518, 0.9517, 0.9515, 0.9514, 0.9512, 0.9512, 0.951, 0.9509, 0.9507, 0.9505, 0.9526, 0.957, 0.9614, 0.9636, 0.968, 0.9724, 0.9769, 0.9813, 0.9857, 0.9902, 0.9947, 0.9952, 0.9955, 0.996, 0.9966, 0.9971, 0.9976, 0.9982, 0.9987, 0.9992, 0.9997, 0.9996, 0.9987, 0.9978, 0.997, 0.9961, 0.9956, 0.9948, 0.9939, 0.993, 0.9921, 0.9912, 0.9857, 0.9829, 0.9746, 0.9718, 0.9663, 0.9608, 0.9552, 0.9497, 0.9442, 0.9359, 0.9357, 0.9355, 0.9352, 0.9348, 0.9345, 0.9342, 0.9338, 0.9335, 0.9331, 0.9328, 0.9326, 0.9302, 0.9258, 0.9213, 0.9169, 0.9125, 0.9081, 0.9037, 0.9015, 0.8971, 0.8927, 0.8884, 0.8744, 0.8603, 0.8462, 0.8322, 0.8182, 0.8043, 0.7973, 0.7834, 0.7695, 0.7557, 0.7523, 0.7598, 0.7673, 0.7748, 0.7822, 0.786, 0.7935, 0.8009, 0.8084, 0.8159, 0.8233, 0.8162, 0.8126, 0.8053, 0.798, 0.7907, 0.7834, 0.7761, 0.7688, 0.7615, 0.7542, 0.7505, 0.6955, 0.64, 0.5845, 0.5288, 0.4732, 0.4175, 0.3618, 0.3339, 0.2781, 0.2223, 0.1856, 0.1692, 0.1526, 0.1361, 0.1195, 0.1028, 0.0862, 0.0778, 0.0611, 0.0443, 0.0274, 0.0245, 0.0218, 0.0191, 0.0137, 0.0069, 0.0
